Multi Channel Experimenter Burst Analyzer ASCII Export


Parameters:

t	12	12	12	
	Duration	Count	Frequency	
[s]	[ms]	[-]	[Hz]	
100.80800	39.00	2	25.641	
157.64130	28.80	2	34.722	
222.35390	110.80	8	63.177	
369.91870	42.50	2	23.529	
560.59190	18.30	3	109.290	
570.22260	17.50	2	57.143	
623.53600	21.70	3	92.166	
701.21310	43.30	2	23.095	
713.15720	13.50	2	74.074	
813.73080	18.60	2	53.763	
837.42500	14.60	3	136.986	
846.00770	56.90	2	17.575	
969.47570	15.70	2	63.694	
1046.13770	26.10	4	114.943	
1060.37010	20.90	2	47.847	
1105.72840	44.10	2	22.676	
1281.86890	420.50	11	23.781	
1306.32200	336.20	4	8.923	
1342.28210	15.40	2	64.935	
1350.92620	34.50	2	28.986	
1369.11770	12.80	3	156.250	
1375.44720	23.30	2	42.918	
1381.05250	13.30	3	150.376	
1450.17140	34.40	2	29.070	
1605.90560	25.70	3	77.821	
1705.89340	10.20	2	98.039	
1807.15940	20.60	2	48.544	
1823.52590	22.50	2	44.444	
1881.74140	18.60	3	107.527	
1955.06680	11.10	2	90.090	
1981.18300	28.20	3	70.922	
1987.15840	28.50	2	35.088	
2089.43550	18.00	2	55.556	
2214.89860	11.40	3	175.439	
2326.01740	27.60	3	72.464	
2344.41960	25.60	2	39.063	
2366.64980	26.40	5	151.515	
2394.69290	26.00	3	76.923	
2535.01950	17.00	2	58.824	
2547.99770	21.60	3	92.593	
2613.55880	11.20	2	89.286	
2711.98060	16.30	4	184.049	
2742.81930	18.00	3	111.111	
2779.77040	30.40	2	32.895	
2786.33520	32.40	2	30.864	
3079.36940	19.10	3	104.712	
3093.36100	12.80	2	78.125	
3282.25200	31.90	3	62.696	
3352.27080	28.30	2	35.336	
3389.59710	26.50	3	75.472	
3431.23310	17.50	2	57.143	
3478.50680	20.00	3	100.000	
3486.11020	24.40	3	81.967	
3492.31450	35.30	3	56.657	
3506.52370	23.40	3	85.470	
3527.34940	22.60	3	88.496	
3546.19640	24.10	3	82.988	
3580.22600	17.90	2	55.866	
3612.39520	16.00	2	62.500	
3617.78770	28.30	2	35.336	

t	13	13	13	
	Duration	Count	Frequency	
[s]	[ms]	[-]	[Hz]	
49.46330	133.10	3	15.026	
157.63490	213.50	3	9.368	
162.70420	313.30	2	3.192	
369.91420	268.10	2	3.730	
469.67950	435.00	3	4.598	
560.58650	365.50	2	2.736	
623.52270	267.80	2	3.734	
744.82020	229.70	2	4.354	
750.88840	278.80	4	10.760	
820.39270	304.20	3	6.575	
837.41030	354.10	2	2.824	
852.98240	315.60	3	6.337	
858.75920	252.60	3	7.918	
965.31050	235.80	3	8.482	
1105.72020	315.80	3	6.333	
1156.45070	183.30	2	5.456	
1281.51100	1019.30	5	3.924	
1293.15270	236.10	3	8.471	
1306.31190	281.30	2	3.555	
1368.85750	250.80	2	3.987	
1375.44060	277.00	2	3.610	
1450.16320	354.30	5	11.290	
1739.62080	353.60	2	2.828	
1823.52020	216.80	2	4.613	
1892.53980	298.30	3	6.705	
2000.07830	244.20	2	4.095	
2043.48020	303.60	2	3.294	
2149.98930	261.00	2	3.831	
2243.60660	322.30	6	15.513	
2387.14240	246.90	2	4.050	
2470.76280	308.40	2	3.243	
2511.03950	214.30	3	9.333	
2528.99420	185.80	2	5.382	
2561.06930	352.20	2	2.839	
2632.60120	275.70	2	3.627	
2699.37780	214.40	2	4.664	
2742.80910	249.80	2	4.003	
2779.76480	307.50	2	3.252	
2791.47870	414.80	2	2.411	
2812.72370	416.10	2	2.403	
2896.14560	214.20	2	4.669	
2899.77070	431.10	4	6.959	
2909.87740	185.40	2	5.394	
2914.66950	201.40	4	14.896	
2999.63030	292.00	2	3.425	
3156.41330	244.40	2	4.092	
3164.79020	282.40	2	3.541	
3227.65310	370.40	2	2.700	
3252.83970	297.20	3	6.729	
3326.73730	202.30	3	9.886	
3389.58760	244.10	2	4.097	
3413.51270	408.90	2	2.446	
3424.20500	309.30	4	9.699	
3478.49490	321.90	3	6.213	
3546.18810	212.20	2	4.713	

t	14	14	14	
	Duration	Count	Frequency	
[s]	[ms]	[-]	[Hz]	
30.55610	181.10	2	5.522	
49.44510	318.80	6	15.684	
63.49860	228.80	4	13.112	
85.15410	248.70	3	8.042	
119.53730	495.50	6	10.091	
157.63200	176.60	2	5.663	
162.70040	272.30	2	3.672	
184.55550	313.40	4	9.572	
282.75940	425.90	2	2.348	
339.32500	246.80	2	4.052	
369.91140	245.50	2	4.073	
419.16240	264.10	2	3.786	
438.41350	74.60	2	13.405	
469.67620	401.10	2	2.493	
538.44920	362.20	6	13.805	
560.58260	311.80	2	3.207	
570.20430	205.80	2	4.859	
586.63780	378.60	4	7.924	
623.51910	248.80	2	4.019	
630.30430	220.50	3	9.070	
637.02230	191.30	2	5.227	
652.04700	280.20	3	7.138	
685.23620	216.00	3	9.259	
744.81630	263.00	5	15.209	
750.88680	211.40	2	4.730	
759.81400	383.50	5	10.430	
781.90730	523.70	5	7.638	
820.39090	218.10	2	4.585	
837.40760	329.50	2	3.035	
846.00050	209.10	2	4.782	
852.97940	258.60	2	3.867	
858.75690	221.10	2	4.523	
965.30890	206.90	3	9.667	
995.36770	347.80	4	8.626	
1034.64120	394.60	3	5.068	
1046.12690	243.80	6	20.509	
1076.78220	411.00	2	2.433	
1091.60110	270.90	4	11.074	
1105.71860	193.10	2	5.179	
1118.89610	262.00	2	3.817	
1131.21440	418.30	5	9.563	
1156.44650	170.10	2	5.879	
1175.92900	260.90	3	7.666	
1197.88880	324.40	2	3.083	
1257.95950	325.80	2	3.069	
1268.09530	183.00	3	10.929	
1281.50670	1005.60	6	4.972	
1293.14950	284.90	3	7.020	
1306.30940	254.90	2	3.923	
1368.85370	233.20	2	4.288	
1375.43890	232.90	2	4.294	
1381.04340	366.80	5	10.905	
1441.10000	254.40	2	3.931	
1450.16110	256.10	2	3.905	
1472.82940	383.00	4	7.833	
1523.11190	297.70	3	6.718	
1555.06660	390.20	5	10.251	
1593.89030	435.00	4	6.897	
1614.65030	500.70	2	1.997	
1632.23370	361.10	4	8.308	
1645.67500	261.80	3	7.639	
1739.61680	414.30	3	4.827	
1745.88410	354.80	2	2.818	
1759.13770	367.30	4	8.168	
1823.51780	186.90	2	5.350	
1846.79940	244.50	3	8.180	
1856.98410	401.00	6	12.469	
1871.35890	267.10	4	11.232	
1881.73320	267.50	2	3.738	
1892.53800	227.80	2	4.390	
1923.28230	426.20	4	7.039	
1936.71270	251.80	4	11.914	
1955.05510	340.90	7	17.600	
1970.56870	278.30	5	14.373	
2000.07510	211.50	2	4.728	
2006.25520	254.70	3	7.852	
2028.73000	316.90	4	9.467	
2043.47690	260.00	3	7.692	
2059.40860	64.30	2	15.552	
2106.39760	327.40	2	3.054	
2149.98700	220.50	3	9.070	
2167.37660	355.60	6	14.061	
2182.91380	359.00	2	2.786	
2204.87710	341.40	3	5.858	
2214.88010	203.50	2	4.914	
2235.51850	309.70	4	9.687	
2243.60370	250.80	2	3.987	
2260.79220	190.90	3	10.477	
2265.29390	420.00	2	2.381	
2272.55710	247.30	3	8.087	
2279.25660	182.90	2	5.467	
2326.00790	217.80	3	9.183	
2344.41020	326.30	4	9.194	
2387.13990	194.80	2	5.133	
2412.70220	227.40	3	8.795	
2427.79880	243.20	3	8.224	
2445.01140	509.90	3	3.922	
2470.76140	268.30	4	11.182	
2511.03710	195.30	2	5.120	
2528.99070	169.40	2	5.903	
2535.00890	329.60	2	3.034	
2561.06560	318.70	2	3.138	
2565.94210	247.40	2	4.042	
2575.00810	236.60	3	8.453	
2595.28270	179.20	2	5.580	
2601.37000	295.20	5	13.550	
2625.79810	472.70	4	6.347	
2632.59950	243.70	2	4.103	
2638.23420	309.70	2	3.229	
2653.27460	348.80	3	5.734	
2670.82500	390.50	3	5.122	
2687.94170	353.10	3	5.664	
2699.37540	270.40	3	7.396	
2716.20460	246.00	3	8.130	
2726.30900	270.60	6	18.477	
2736.62850	326.30	3	6.129	
2742.80650	230.70	2	4.335	
2747.61910	224.30	5	17.833	
2779.76100	240.90	3	8.302	
2791.47430	359.40	5	11.130	
2804.69450	72.40	2	13.812	
2812.71930	494.60	3	4.044	
2827.32580	383.70	3	5.212	
2837.51940	247.90	3	8.068	
2859.27060	277.50	4	10.811	
2880.17550	206.00	2	4.854	
2885.27750	190.80	2	5.241	
2889.28670	470.50	3	4.251	
2896.14360	295.70	3	6.764	
2899.76660	292.60	2	3.418	
2905.02590	334.70	5	11.951	
2909.87550	173.90	2	5.750	
2914.66660	161.20	3	12.407	
2919.89690	224.60	2	4.452	
2927.03550	173.40	3	11.534	
2968.14440	228.80	4	13.112	
2972.32950	323.60	3	6.180	
2977.61100	253.30	4	11.844	
2993.82590	394.30	2	2.536	
2999.62660	267.70	2	3.736	
3014.79850	435.40	3	4.593	
3044.09220	329.30	2	3.037	
3052.38440	198.00	2	5.051	
3072.26290	191.90	3	10.422	
3079.35940	181.00	2	5.525	
3089.54710	410.00	3	4.878	
3093.34430	307.90	3	6.496	
3106.52060	400.30	3	4.996	
3118.36250	417.50	4	7.186	
3144.92300	308.20	6	16.223	
3156.41040	196.80	4	15.244	
3161.04060	243.20	4	12.336	
3164.78610	253.70	2	3.942	
3186.04730	263.40	2	3.797	
3214.50650	260.70	3	7.672	
3227.64850	356.40	2	2.806	
3252.83770	251.70	2	3.973	
3273.60600	289.80	2	3.451	
3282.24130	259.00	2	3.861	
3326.73540	183.80	2	5.441	
3363.96440	387.70	4	7.738	
3379.97700	402.60	3	4.968	
3384.33970	393.80	3	5.079	
3389.58530	216.00	2	4.630	
3396.95690	377.40	2	2.650	
3404.37440	269.90	3	7.410	
3413.50860	388.20	2	2.576	
3419.50060	169.50	2	5.900	
3424.20320	232.20	2	4.307	
3431.21750	245.80	2	4.068	
3459.25210	218.90	3	9.137	
3462.46140	230.20	3	8.688	
3471.17870	195.90	3	10.209	
3478.49110	267.50	2	3.738	
3486.09340	314.60	3	6.357	
3492.30400	218.70	2	4.572	
3506.51380	321.40	3	6.223	
3516.93000	235.60	2	4.244	
3546.18540	197.40	2	5.066	
3556.22240	217.70	2	4.593	
3568.56030	195.00	5	20.513	
3587.30720	372.00	2	2.688	
3637.58360	338.20	3	5.914	

t	15	15	15	
	Duration	Count	Frequency	
[s]	[ms]	[-]	[Hz]	

t	16	16	16	
	Duration	Count	Frequency	
[s]	[ms]	[-]	[Hz]	
49.59200	15.00	3	133.333	
162.70090	13.50	2	74.074	
339.32700	14.20	3	140.845	
428.17910	12.30	2	81.301	
470.12110	32.60	5	122.699	
502.12500	10.50	2	95.238	
538.44980	11.80	2	84.746	
570.20500	10.00	2	100.000	
630.30430	10.70	2	93.458	
685.23650	10.20	2	98.039	
732.51680	11.60	2	86.207	
766.39650	12.80	3	156.250	
773.51920	10.20	3	196.078	
813.72240	14.80	3	135.135	
827.61440	11.40	2	87.719	
858.75830	10.60	2	94.340	
880.49060	10.20	2	98.039	
921.72150	13.60	2	73.529	
1060.36200	18.40	3	108.696	
1091.60240	12.20	2	81.967	
1268.09590	11.90	2	84.034	
1281.86950	708.80	15	19.752	
1293.15030	11.90	2	84.034	
1350.91750	19.40	3	103.093	
1433.89920	12.00	2	83.333	
1450.16210	11.30	2	88.496	
1503.32220	11.40	2	87.719	
1645.67530	11.60	2	86.207	
1652.30650	10.10	2	99.010	
1690.55550	10.00	2	100.000	
1792.68250	10.90	2	91.743	
1823.51840	16.60	3	120.482	
1871.35950	15.10	3	132.450	
1936.71290	10.80	2	92.593	
1955.05550	11.40	2	87.719	
1965.03630	10.20	2	98.039	
1981.17470	11.20	2	89.286	
1993.60480	10.70	2	93.458	
2000.07510	10.10	2	99.010	
2006.25560	10.00	2	100.000	
2022.75070	10.20	2	98.039	
2043.47730	10.90	2	91.743	
2070.00740	10.70	2	93.458	
2089.42640	10.50	2	95.238	
2100.75270	10.40	2	96.154	
2142.80860	11.50	2	86.957	
2149.98740	10.40	2	96.154	
2155.59210	11.20	2	89.286	
2214.87990	10.70	2	93.458	
2235.51830	11.70	2	85.470	
2260.79250	10.10	2	99.010	
2272.55710	10.60	2	94.340	
2279.25690	10.20	2	98.039	
2304.14110	10.00	2	100.000	
2349.61460	10.60	2	94.340	
2352.48500	10.80	2	92.593	
2374.63460	15.50	2	64.516	
2380.04060	13.60	2	73.529	
2387.14020	11.10	2	90.090	
2394.68270	10.50	2	95.238	
2408.82890	11.50	2	86.957	
2412.70230	11.10	2	90.090	
2427.79880	10.30	2	97.087	
2431.91910	10.90	2	91.743	
2445.01180	516.00	2	1.938	
2456.19300	12.80	2	78.125	
2489.38580	11.30	2	88.496	
2511.03760	11.30	2	88.496	
2524.30680	11.50	2	86.957	
2528.99140	12.30	2	81.301	
2547.98760	11.10	2	90.090	
2552.58050	10.70	2	93.458	
2590.12310	11.80	2	84.746	
2613.54920	11.20	2	89.286	
2638.23450	10.40	2	96.154	
2665.30940	10.20	2	98.039	
2670.82550	13.50	3	148.148	
2687.94230	131.30	2	7.616	
2699.37590	10.30	2	97.087	
2711.96510	13.00	3	153.846	
2726.30890	12.40	2	80.645	
2736.62870	12.80	2	78.125	
2742.80650	11.90	2	84.034	
2754.38870	13.20	2	75.758	
2779.76100	10.50	2	95.238	
2837.51990	17.30	3	115.607	
2870.63690	12.30	2	81.301	
2875.42140	11.40	2	87.719	
2899.76780	454.40	3	4.401	
2905.02570	12.20	2	81.967	
2909.87530	10.90	2	91.743	
2914.66660	11.30	2	88.496	
2936.32750	10.90	2	91.743	
2968.14430	11.60	2	86.207	
2972.33000	10.10	2	99.010	
2977.61120	12.40	2	80.645	
2984.66850	16.10	3	124.224	
3002.54390	11.90	2	84.034	
3052.38460	12.70	2	78.740	
3072.26340	11.00	2	90.909	
3079.35970	11.50	2	86.957	
3093.34510	13.90	3	143.885	
3112.96490	13.70	2	72.993	
3118.36290	123.20	4	24.351	
3156.41070	12.40	2	80.645	
3177.59880	10.30	2	97.087	
3214.50670	17.30	4	173.410	
3227.76240	363.40	11	27.518	
3252.83840	13.60	2	73.529	
3268.41430	12.90	3	155.039	
3352.26030	13.40	2	74.627	
3384.34040	13.00	2	76.923	
3389.58720	12.00	2	83.333	
3419.50120	12.70	2	78.740	
3431.21800	11.20	2	89.286	
3459.25380	10.60	2	94.340	
3462.46230	13.10	3	152.672	
3486.09390	12.60	2	79.365	
3499.81400	24.40	3	81.967	
3506.51450	13.40	2	74.627	
3546.18620	10.40	2	96.154	
3568.56090	10.70	2	93.458	
3580.21770	13.60	2	73.529	
3607.37410	13.30	2	75.188	
3617.77760	10.10	2	99.010	

t	17	17	17	
	Duration	Count	Frequency	
[s]	[ms]	[-]	[Hz]	
623.52150	64.10	3	31.201	
701.25110	39.40	3	50.761	
807.90390	14.30	3	139.860	
1204.35600	19.00	4	157.895	
1281.50890	1066.70	5	3.750	
1389.91510	11.20	2	89.286	
1714.49780	15.40	3	129.870	
1892.58920	17.70	3	112.994	
1970.57070	81.20	7	73.892	
2250.14520	20.90	2	47.847	
2256.17480	18.40	3	108.696	
2283.78490	10.30	2	97.087	
2304.14500	64.90	2	15.408	
2326.06150	11.90	2	84.034	
2332.89290	17.60	3	113.636	
2477.11480	15.70	3	127.389	
2543.96100	18.20	3	109.890	
2575.00990	11.60	3	172.414	
2692.88450	17.00	3	117.647	
2722.21740	15.00	3	133.333	
2767.70740	10.20	2	98.039	
2812.71940	17.30	3	115.607	
2817.02100	12.10	3	165.289	
2905.02860	68.60	3	29.155	
2932.41200	10.00	2	100.000	
3009.96660	20.30	2	49.261	
3048.66520	10.50	2	95.238	
3093.34800	58.00	2	17.241	
3106.52120	16.20	3	123.457	
3221.42160	19.30	2	51.813	
3227.64940	13.80	2	72.464	
3258.03560	73.90	2	13.532	
3297.58430	10.30	2	97.087	
3318.93650	21.00	3	95.238	
3340.62640	10.70	3	186.916	
3363.96570	15.90	3	125.786	
3396.95890	12.40	2	80.645	
3437.63570	10.50	2	95.238	
3444.78970	12.00	2	83.333	
3451.76860	12.20	3	163.934	
3462.52600	15.90	4	188.679	
3467.89320	20.60	2	48.544	
3471.18120	12.60	3	158.730	
3478.49320	80.60	2	12.407	
3499.69270	10.90	2	91.743	
3510.47630	20.50	4	146.341	
3525.29980	11.70	2	85.470	
3535.11510	20.20	2	49.505	
3540.92880	21.50	2	46.512	
3550.58950	21.20	2	47.170	
3587.30680	21.40	2	46.729	

t	21	21	21	
	Duration	Count	Frequency	
[s]	[ms]	[-]	[Hz]	
1281.88210	686.60	6	7.282	
2776.28410	26.30	3	76.046	

t	22	22	22	
	Duration	Count	Frequency	
[s]	[ms]	[-]	[Hz]	
759.82240	23.50	2	42.553	
852.98760	19.70	3	101.523	
1281.86820	679.30	4	4.416	
1381.05240	18.60	3	107.527	
1690.56370	12.40	2	80.645	
1970.58440	18.30	3	109.290	
2006.26310	26.20	2	38.168	
2204.88680	12.20	3	163.934	
2511.04530	26.20	2	38.168	
2670.83290	20.70	2	48.309	
2736.63760	12.00	3	166.667	
2905.03490	18.40	3	108.696	
2977.62050	10.60	3	188.679	
3273.61410	26.00	3	76.923	
3462.47010	31.70	3	63.091	
3546.19340	25.70	2	38.911	
3580.22590	20.00	2	50.000	

t	23	23	23	
	Duration	Count	Frequency	
[s]	[ms]	[-]	[Hz]	
154.45570	32.40	2	30.864	
623.51970	298.80	2	3.347	
701.20570	68.60	2	14.577	
797.92800	42.40	2	23.585	
858.75790	283.40	2	3.529	
1011.61430	45.70	2	21.882	
1091.60170	51.80	2	19.305	
1105.71940	304.70	7	19.691	
1281.50980	1050.50	13	11.423	
1433.89920	39.40	2	25.381	
1690.55580	45.60	2	21.930	
1730.01910	32.70	2	30.581	
1771.35480	44.80	2	22.321	
1781.56270	29.40	2	34.014	
1965.03560	49.20	2	20.325	
2043.47780	350.90	5	11.399	
2149.98770	310.80	4	9.653	
2167.37820	38.60	2	25.907	
2366.63990	50.90	2	19.646	
2470.76190	359.20	3	5.568	
2511.03780	264.30	3	7.567	
2742.80700	306.90	3	6.517	
2885.27820	60.80	2	16.447	
2909.87610	238.90	5	16.743	
2999.62710	332.60	3	6.013	
3065.33310	27.00	2	37.037	
3093.34500	56.60	2	17.668	
3172.76260	25.80	2	38.760	
3227.64980	441.80	6	11.317	
3252.83820	365.20	6	13.691	
3287.14860	34.50	2	28.986	
3326.73610	272.40	4	11.013	
3389.58670	347.90	5	11.498	
3413.51290	440.20	2	2.272	
3478.49160	62.10	2	16.103	
3529.36380	27.50	2	36.364	
3612.38540	50.60	2	19.763	

t	24	24	24	
	Duration	Count	Frequency	
[s]	[ms]	[-]	[Hz]	
63.49630	283.10	6	17.662	
85.19880	271.20	5	14.749	
157.63000	197.00	4	15.228	
162.69830	288.60	3	6.930	
369.90940	360.70	4	8.317	
419.16030	312.30	5	12.808	
469.67210	492.90	4	6.086	
538.44710	292.50	2	3.419	
560.58060	351.40	2	2.846	
570.20230	248.40	3	8.052	
623.51710	263.80	2	3.791	
630.30270	228.90	2	4.369	
685.23410	279.30	7	21.482	
701.20290	81.00	2	12.346	
750.88510	224.50	2	4.454	
820.38880	243.10	4	12.341	
837.40560	344.10	2	2.906	
845.99880	280.50	3	7.130	
852.97730	347.30	3	5.759	
858.75480	233.10	2	4.290	
965.30700	214.20	2	4.669	
1034.63860	442.60	4	6.778	
1046.12500	296.30	3	6.750	
1105.71660	198.70	2	5.033	
1131.21240	378.70	4	7.922	
1156.44400	187.70	2	5.328	
1197.88560	373.40	4	8.034	
1268.09330	196.60	3	10.173	
1281.50410	1003.60	6	4.982	
1293.14750	195.40	2	5.118	
1306.30730	284.30	3	7.035	
1368.85120	246.20	2	4.062	
1375.43710	268.20	3	7.457	
1450.15940	275.70	2	3.627	
1523.10990	286.30	3	6.986	
1555.06390	461.70	5	8.664	
1645.67310	197.70	3	10.116	
1739.61400	341.70	2	2.927	
1823.51600	287.40	4	10.438	
1892.53580	263.60	5	15.175	
2000.07310	279.40	3	7.158	
2006.25320	197.80	2	5.056	
2043.47480	280.70	2	3.563	
2106.39570	367.50	3	5.442	
2149.98510	356.40	4	8.418	
2204.87500	314.30	5	12.727	
2243.60200	266.90	2	3.747	
2260.79040	208.10	2	4.805	
2272.55510	279.10	2	3.583	
2279.25480	213.50	4	14.052	
2326.00580	282.80	3	7.072	
2427.79690	216.50	5	18.476	
2470.75960	389.80	3	5.131	
2511.03500	206.50	2	4.843	
2528.98900	179.70	2	5.565	
2535.00680	367.20	3	5.447	
2561.06330	342.50	2	2.920	
2595.28080	204.30	4	14.684	
2632.59770	277.20	2	3.608	
2638.23220	355.90	5	11.239	
2687.94010	322.80	3	6.196	
2699.37360	251.30	3	7.959	
2716.20280	273.20	3	7.321	
2742.80470	248.30	3	8.055	
2779.75880	314.20	5	12.731	
2791.47210	404.60	5	9.886	
2812.71670	413.50	2	2.418	
2885.27550	249.80	5	16.013	
2889.28440	458.80	2	2.180	
2896.14150	251.60	3	7.949	
2899.76430	454.90	5	8.793	
2909.87380	184.50	2	5.420	
2914.66470	220.80	5	18.116	
2919.89470	249.10	2	4.014	
2927.03330	181.40	3	11.025	
2999.62430	288.20	3	6.940	
3014.79610	406.30	2	2.461	
3052.38230	241.50	4	12.422	
3118.36000	387.10	7	15.500	
3156.40810	276.00	6	18.116	
3161.03830	357.00	10	25.210	
3164.78390	387.20	5	10.331	
3227.64610	375.10	3	5.332	
3252.83570	281.00	2	3.559	
3273.60420	415.60	10	21.655	
3326.73350	191.60	2	5.219	
3384.33780	352.90	3	5.667	
3389.58390	242.40	2	4.125	
3396.95510	417.90	2	2.393	
3413.50550	407.20	2	2.456	
3419.49910	201.70	6	24.789	
3424.20100	252.50	2	3.960	
3431.21540	298.00	4	10.067	
3459.25030	242.10	2	4.131	
3478.48900	368.30	3	5.430	
3486.09120	361.80	6	13.820	
3506.51180	290.60	4	10.323	
3516.92810	281.00	3	7.117	
3546.18320	207.20	2	4.826	
3556.22020	253.50	3	7.890	
3637.58130	320.80	4	9.352	

t	25	25	25	
	Duration	Count	Frequency	
[s]	[ms]	[-]	[Hz]	
573.76060	31.20	5	128.205	
1124.51970	73.50	4	40.816	
1704.13870	36.30	4	82.645	
2093.81720	44.10	2	22.676	
2238.57960	61.40	7	97.720	
2255.44260	51.20	2	19.531	
2362.80250	819.90	4	3.659	
2417.54830	26.30	2	38.023	
2462.85210	53.50	2	18.692	
2511.35200	52.30	2	19.120	
2687.00950	211.30	2	4.733	
2964.93990	17.60	2	56.818	
2968.93410	272.80	3	7.331	
2975.54300	77.40	4	38.760	
2987.61580	60.50	2	16.529	
3025.78350	95.10	2	10.515	
3089.18920	36.50	2	27.397	
3171.41540	20.30	4	147.783	
3224.28510	89.70	6	55.741	
3460.86990	59.80	6	83.612	
3480.23260	2584.30	11	3.870	
3501.82320	69.00	3	28.986	
3604.35800	161.70	4	18.553	

t	26	26	26	
	Duration	Count	Frequency	
[s]	[ms]	[-]	[Hz]	
162.69790	334.20	2	2.992	
469.67180	427.60	3	4.677	
560.58010	376.00	2	2.660	
781.90390	516.90	3	3.869	
837.40530	370.30	2	2.701	
858.75450	303.90	2	3.291	
1016.59080	52.70	4	56.926	
1028.44390	145.70	5	27.454	
1034.63790	421.20	3	4.748	
1204.35150	51.40	3	38.911	
1281.50380	1049.10	8	6.672	
1319.80100	10.00	2	100.000	
1555.06340	435.10	3	4.597	
1730.01360	56.70	3	35.273	
1781.55610	49.40	2	20.243	
1932.57410	61.30	4	48.940	
1970.56570	112.40	3	17.794	
2043.47430	332.10	2	3.011	
2054.20950	44.60	2	22.422	
2065.55190	48.90	2	20.450	
2095.33980	47.70	2	20.964	
2250.14220	50.10	2	19.960	
2265.29060	465.90	3	4.293	
2332.88910	45.30	2	22.075	
2402.74710	54.20	2	18.450	
2445.00820	502.50	3	3.980	
2451.59520	48.10	2	20.790	
2463.48870	47.80	2	20.921	
2470.75930	336.40	2	2.973	
2477.11070	46.50	2	21.505	
2489.38290	50.60	2	19.763	
2506.53800	44.40	3	45.045	
2524.30300	48.10	2	20.790	
2535.00620	416.20	3	4.805	
2543.95710	45.20	3	44.248	
2561.06300	368.30	3	5.430	
2575.00520	46.70	2	21.413	
2583.53250	53.60	3	37.313	
2606.75760	47.90	2	20.877	
2613.54650	132.00	2	7.576	
2619.53940	43.50	3	45.977	
2625.79420	460.20	6	10.865	
2646.09740	47.50	3	42.105	
2659.27350	48.70	2	20.534	
2670.82240	126.40	3	15.823	
2687.93890	114.80	3	17.422	
2692.87970	50.90	2	19.646	
2722.21300	51.40	3	38.911	
2759.67100	50.20	2	19.920	
2767.70350	48.30	2	20.704	
2773.24880	51.70	2	19.342	
2791.47100	428.90	4	6.995	
2797.03070	50.00	2	20.000	
2812.71610	494.40	5	8.091	
2827.32240	41.30	3	48.426	
2831.03730	45.50	2	21.978	
2847.66470	56.10	4	53.476	
2880.17240	51.10	3	39.139	
2889.28380	435.60	2	2.296	
2899.76340	396.40	2	2.523	
2927.03260	48.50	2	20.619	
2949.82420	45.00	2	22.222	
2955.49040	58.00	3	34.483	
2962.68050	46.30	3	43.197	
2993.82310	44.90	2	22.272	
3014.79520	44.40	2	22.523	
3024.97180	45.60	2	21.930	
3031.65230	42.60	3	46.948	
3037.63680	51.50	2	19.417	
3044.08860	55.90	3	35.778	
3048.65910	46.70	2	21.413	
3058.51610	57.10	3	35.026	
3065.32420	43.30	3	46.189	
3083.23530	48.10	2	20.790	
3089.54470	125.30	2	7.981	
3102.05800	47.40	2	21.097	
3106.51750	116.10	2	8.613	
3118.35920	111.70	2	8.953	
3123.37600	45.20	2	22.124	
3131.87700	45.70	2	21.882	
3137.19500	46.60	3	42.918	
3164.78310	371.40	2	2.693	
3172.75400	40.80	3	49.020	
3177.59540	120.90	2	8.271	
3183.01250	47.10	2	21.231	
3192.85710	54.80	3	36.496	
3199.29040	49.10	3	40.733	
3207.60470	46.70	2	21.413	
3221.41800	44.50	2	22.472	
3227.64530	394.10	5	10.150	
3234.04140	53.80	2	18.587	
3239.36570	556.40	3	3.595	
3244.57210	44.90	2	22.272	
3252.83530	363.90	4	8.244	
3263.66980	44.00	2	22.727	
3273.60330	147.70	4	20.311	
3287.14360	47.90	2	20.877	
3297.57930	49.30	3	40.568	
3304.56590	62.50	3	32.000	
3314.34960	54.00	3	37.037	
3318.93210	42.80	2	23.364	
3335.99660	45.10	2	22.173	
3340.62140	54.00	3	37.037	
3357.76170	40.80	3	49.020	
3363.96140	47.20	2	21.186	
3371.43760	43.10	3	46.404	
3376.71550	145.10	3	13.784	
3379.97240	42.00	2	23.810	
3396.95420	58.00	3	34.483	
3404.37150	46.50	2	21.505	
3413.50470	426.90	5	9.370	
3437.63090	57.90	3	34.542	
3444.78420	47.80	2	20.921	
3451.76430	54.20	3	36.900	
3467.88910	43.00	2	23.256	
3471.17540	46.00	2	21.739	
3478.48860	161.20	3	12.407	
3486.09090	145.30	3	13.765	
3499.68900	114.70	4	26.155	
3510.47080	44.20	2	22.624	
3525.29510	44.00	2	22.727	
3529.35710	42.50	2	23.529	
3535.11100	68.00	4	44.118	
3540.92570	46.60	3	42.918	
3550.58450	62.10	3	32.206	
3564.39880	31.30	3	63.898	
3572.84520	49.90	2	20.040	
3587.30340	176.50	8	39.660	
3592.76170	58.50	3	34.188	
3599.04680	37.90	3	52.770	
3607.37090	64.60	3	30.960	
3627.84700	37.50	3	53.333	
3637.58100	62.20	4	48.232	

t	27	27	27	
	Duration	Count	Frequency	
[s]	[ms]	[-]	[Hz]	
129.57350	21.20	3	94.340	
154.45080	19.90	3	100.503	
211.79220	20.30	3	98.522	
248.25700	22.30	3	89.686	
261.36610	22.00	3	90.909	
282.75980	20.80	3	96.154	
348.00450	19.80	3	101.010	
369.91240	79.00	5	50.633	
419.16530	68.00	2	14.706	
449.88880	91.00	4	32.967	
492.02680	83.60	3	23.923	
526.65600	20.80	3	96.154	
560.58370	11.90	2	84.034	
578.80900	21.10	3	94.787	
623.52010	62.30	3	32.103	
691.95570	18.90	3	105.820	
701.20880	62.80	2	15.924	
750.89100	69.10	2	14.472	
759.81590	82.90	4	36.188	
766.39790	86.30	3	23.175	
797.92790	19.80	3	101.010	
807.90290	31.60	2	31.646	
813.72380	11.20	2	89.286	
827.61750	10.10	2	99.010	
837.40960	83.20	4	36.058	
858.76030	87.20	4	34.404	
921.72330	10.60	2	94.340	
945.97100	19.70	3	101.523	
954.98330	20.80	3	96.154	
983.32540	18.60	3	107.527	
1011.61520	20.30	3	98.522	
1028.44670	105.10	6	47.574	
1054.82110	20.80	3	96.154	
1091.60440	10.00	2	100.000	
1112.77330	17.40	3	114.943	
1118.89690	17.60	3	113.636	
1131.21570	20.70	3	96.618	
1175.92840	33.80	3	59.172	
1197.88740	110.60	5	36.166	
1220.72970	20.60	3	97.087	
1228.64920	20.20	3	99.010	
1240.40460	18.80	3	106.383	
1257.95790	107.80	4	27.829	
1268.09830	10.70	2	93.458	
1281.50690	1063.90	12	10.339	
1313.64770	18.70	3	106.952	
1319.80370	33.30	2	30.030	
1342.26960	71.40	2	14.006	
1368.85510	20.10	3	99.502	
1381.04580	83.60	3	23.923	
1399.91600	19.20	3	104.167	
1405.61490	99.90	6	50.050	
1420.96860	18.50	3	108.108	
1433.89950	20.00	3	100.000	
1441.10140	18.80	3	106.383	
1450.16450	79.00	2	12.658	
1472.82980	86.40	6	57.870	
1483.39220	19.20	3	104.167	
1493.90790	31.60	2	31.646	
1503.32380	17.10	3	116.959	
1543.00600	18.30	3	109.290	
1566.71560	18.80	3	106.383	
1578.84590	87.00	2	11.494	
1593.89000	18.80	3	106.383	
1614.64940	31.10	2	32.154	
1625.72520	17.70	3	112.994	
1632.23390	90.30	6	55.371	
1652.30800	18.90	3	105.820	
1683.24010	32.40	3	61.728	
1690.55690	19.10	3	104.712	
1714.49680	32.60	2	30.675	
1719.16890	33.60	2	29.762	
1730.01700	37.20	4	80.645	
1739.61580	94.50	3	21.164	
1745.88700	20.10	3	99.502	
1759.13930	18.00	3	111.111	
1801.49500	32.60	2	30.675	
1815.80520	99.90	2	10.010	
1823.52040	18.30	3	109.290	
1864.88690	30.90	2	32.362	
1871.36020	19.10	3	104.712	
1881.73510	16.80	3	119.048	
1892.54240	70.20	2	14.245	
1909.10330	87.70	4	34.208	
1923.28560	102.10	2	9.794	
1955.05720	19.10	3	104.712	
1965.03800	18.20	3	109.890	
1970.56940	63.90	3	31.299	
1981.17610	17.80	3	112.360	
1987.15150	87.60	5	45.662	
2000.07700	18.20	3	109.890	
2006.25890	19.40	3	103.093	
2022.75460	18.80	3	106.383	
2035.67050	30.10	2	33.223	
2043.47840	104.90	5	38.132	
2070.00880	106.20	5	37.665	
2083.36720	18.10	3	110.497	
2089.42860	18.10	3	110.497	
2095.34300	34.80	2	28.736	
2100.75520	20.00	3	100.000	
2149.98920	19.40	3	103.093	
2204.87890	18.80	3	106.383	
2214.88300	11.70	2	85.470	
2222.92020	20.70	3	96.618	
2243.60590	115.20	6	43.403	
2250.14440	31.60	2	31.646	
2260.79470	17.80	3	112.360	
2265.29350	90.40	2	11.062	
2272.55850	17.60	4	170.455	
2279.25900	18.80	3	106.383	
2295.03340	33.00	2	30.303	
2304.14300	65.10	4	46.083	
2326.01210	104.60	3	19.120	
2332.89180	31.20	2	32.051	
2344.41330	102.60	5	38.986	
2349.61610	65.20	4	46.012	
2352.48700	19.20	3	104.167	
2366.64180	19.80	3	101.010	
2387.14290	18.10	3	110.497	
2394.68510	19.20	3	104.167	
2412.70430	18.60	3	107.527	
2427.80140	19.30	3	103.627	
2431.92120	62.00	3	32.258	
2438.59850	117.20	9	68.259	
2470.76550	12.50	2	80.000	
2489.38720	26.60	3	75.188	
2511.04100	18.60	3	107.527	
2524.30810	33.70	4	89.021	
2543.95950	40.00	2	25.000	
2552.58220	17.90	3	111.732	
2561.06620	78.10	2	12.804	
2595.28810	19.60	3	102.041	
2606.76060	32.90	2	30.395	
2613.55050	121.10	5	33.031	
2625.79650	38.60	2	25.907	
2632.60280	70.80	4	42.373	
2638.23590	87.50	4	34.286	
2653.27560	101.00	5	39.604	
2665.31210	17.10	3	116.959	
2670.82660	116.60	4	25.729	
2687.94680	63.40	4	47.319	
2706.72640	32.00	4	93.750	
2711.96670	86.90	6	57.537	
2722.21620	32.50	2	30.769	
2736.63000	107.90	5	37.071	
2742.80880	102.30	6	48.876	
2786.32870	99.80	7	60.120	
2804.69450	33.30	2	30.030	
2870.64060	18.10	3	110.497	
2875.42440	27.90	3	71.685	
2885.28190	70.60	4	42.493	
2905.02690	96.40	6	51.867	
2909.87930	16.90	3	118.343	
2932.41030	93.80	2	10.661	
2936.32980	75.50	4	39.735	
2968.14750	17.50	3	114.286	
2972.33210	87.20	3	22.936	
2999.62750	105.20	2	9.506	
3089.54760	77.70	2	12.870	
3093.34620	76.90	5	52.016	
3106.52000	144.20	3	13.870	
3118.36230	80.80	4	37.129	
3177.59990	75.80	3	26.385	
3183.01540	36.40	2	27.473	
3199.29260	112.40	2	8.897	
3214.50820	102.50	4	29.268	
3227.64810	179.60	3	11.136	
3252.84030	115.20	6	43.403	
3258.03340	118.00	4	25.424	
3273.60830	138.80	6	36.023	
3297.58290	34.60	2	28.902	
3326.74000	17.60	3	113.636	
3352.26200	84.00	3	23.810	
3376.71800	143.30	5	27.913	
3419.50410	29.50	3	67.797	
3424.20700	88.40	6	56.561	
3431.21960	104.00	5	38.462	
3459.25680	32.20	4	93.168	
3462.46470	61.30	3	32.626	
3478.49190	77.00	3	25.974	
3486.09440	92.10	3	21.716	
3492.30770	81.10	3	24.661	
3499.69150	170.50	4	17.595	
3525.29810	118.90	5	33.642	
3572.84990	31.90	2	31.348	
3580.21880	94.30	4	31.813	
3587.30590	167.60	4	17.900	
3612.38620	129.50	7	46.332	
3622.44670	31.10	3	64.309	

t	28	28	28	
	Duration	Count	Frequency	
[s]	[ms]	[-]	[Hz]	
211.79090	13.00	2	76.923	
515.38420	10.50	2	95.238	
898.27660	13.60	2	73.529	
972.60700	14.40	2	69.444	
1137.22330	10.40	2	96.154	
1281.50600	759.10	10	11.856	
1319.80260	10.50	2	95.238	
1325.09860	11.20	2	89.286	
1389.91230	13.50	2	74.074	
1719.16740	12.00	2	83.333	
1730.01580	12.60	2	79.365	
1739.61450	12.90	3	155.039	
1897.93490	10.70	2	93.458	
2190.52410	13.00	2	76.923	
2197.05980	11.00	3	181.818	
2256.17260	10.70	2	93.458	
2332.89030	11.20	2	89.286	
2506.53880	20.00	2	50.000	
2646.09890	10.30	2	97.087	
2722.21500	12.20	3	163.934	
2797.03250	11.90	2	84.034	
2831.03930	13.40	3	149.254	
3044.09020	10.40	2	96.154	
3065.32410	21.00	2	47.619	
3199.29130	11.60	3	172.414	
3221.41960	13.00	2	76.923	
3371.43920	12.20	2	81.967	
3529.35970	10.60	2	94.340	
3540.92690	12.00	2	83.333	

t	31	31	31	
	Duration	Count	Frequency	
[s]	[ms]	[-]	[Hz]	
2.42690	203.60	8	34.381	
45.00600	15.60	3	128.205	
108.83990	20.20	3	99.010	
208.43850	394.60	16	38.013	
287.13380	40.70	4	73.710	
349.10780	66.20	2	15.106	
628.01940	21.80	2	45.872	
1031.64890	49.50	4	60.606	
1036.59090	336.90	8	20.778	
1085.04320	246.50	2	4.057	
1195.99590	21.80	2	45.872	
1203.43390	483.50	10	18.614	
1232.20990	34.10	2	29.326	
1350.79470	119.70	7	50.125	
1455.50370	176.70	9	45.274	
1467.87330	584.20	5	6.847	
1570.65740	344.20	7	17.432	
1853.20260	207.00	6	24.155	
1858.70420	104.50	4	28.708	
1947.09460	12.30	2	81.301	
1958.21820	437.40	9	18.290	
1994.95270	22.60	2	44.248	
2075.01220	193.90	3	10.315	
2145.94060	22.20	2	45.045	
2169.06440	533.10	2	1.876	
2315.65000	16.70	2	59.880	
2331.07220	306.00	8	22.876	
2397.63790	51.60	2	19.380	
2422.37890	16.60	2	60.241	
2585.40710	24.60	2	40.650	
2629.45100	163.30	5	24.495	
2714.47830	401.00	5	9.975	
2728.78410	65.60	8	106.707	
2757.67660	34.20	3	58.480	
2785.13890	19.30	3	103.627	
2791.42960	30.40	3	65.789	
2872.85580	73.50	4	40.816	
2965.65860	14.10	2	70.922	
3042.50360	26.90	5	148.699	
3182.75220	363.10	2	2.754	
3191.35210	115.60	8	60.554	
3195.62780	66.60	2	15.015	
3220.68180	17.90	3	111.732	
3275.43640	96.30	5	41.537	
3370.06750	85.90	4	34.924	
3396.95560	131.90	4	22.745	
3402.99510	290.20	6	17.229	
3466.46130	13.30	3	150.376	
3479.08880	17.00	2	58.824	
3548.18100	12.90	2	77.519	

t	32	32	32	
	Duration	Count	Frequency	
[s]	[ms]	[-]	[Hz]	

t	33	33	33	
	Duration	Count	Frequency	
[s]	[ms]	[-]	[Hz]	

t	34	34	34	
	Duration	Count	Frequency	
[s]	[ms]	[-]	[Hz]	
30.73030	385.50	6	12.970	
49.58590	181.70	2	5.504	
63.49360	178.60	2	5.599	
85.19910	174.80	2	5.721	
100.79320	281.20	4	10.669	
119.53170	478.70	6	10.445	
129.56860	287.20	4	10.446	
157.62660	149.60	2	6.684	
162.69570	237.10	2	4.218	
184.55000	340.20	3	5.879	
211.78720	376.60	2	2.655	
248.25220	408.50	5	9.792	
282.75400	472.80	5	8.460	
339.32070	205.50	2	4.866	
347.99980	258.10	3	7.749	
362.31330	404.40	4	7.418	
369.90710	230.30	2	4.342	
403.48260	387.70	9	20.635	
419.15780	227.80	3	8.780	
428.17470	368.10	4	8.150	
469.66970	406.10	6	12.312	
478.87530	283.80	3	7.047	
492.02070	292.70	5	13.666	
502.12010	241.50	3	8.282	
515.38070	236.50	4	12.685	
526.65010	282.10	9	28.359	
538.44470	206.50	3	9.685	
550.13940	415.30	4	7.224	
560.57830	269.70	4	11.123	
570.19960	309.70	3	6.458	
578.80390	256.90	3	7.785	
586.63270	361.00	8	19.391	
607.16350	299.20	8	23.396	
623.51490	235.20	2	4.252	
630.30000	298.30	5	13.409	
637.01770	241.80	4	12.407	
646.40670	282.10	5	14.179	
652.04200	220.70	3	9.062	
685.23070	188.90	2	5.294	
701.19930	277.70	4	10.803	
713.14280	277.90	3	7.197	
744.81190	212.20	3	9.425	
750.88160	194.40	2	5.144	
759.80960	261.80	3	7.639	
766.39200	329.50	7	18.209	
773.51390	388.20	12	28.336	
781.90180	516.20	2	1.937	
813.71650	259.20	4	11.574	
820.38600	207.40	3	9.643	
827.60900	250.30	8	27.966	
837.40290	313.00	5	12.780	
845.99590	187.40	2	5.336	
852.97490	386.70	4	7.758	
858.75200	206.30	2	4.847	
866.95450	186.20	3	10.741	
875.84170	316.80	5	12.626	
880.48490	293.50	8	23.850	
885.63460	351.00	7	17.094	
904.67050	309.40	10	29.089	
910.51460	151.10	3	13.236	
921.71670	309.90	7	19.361	
954.97680	190.00	3	10.526	
965.30450	187.50	3	10.667	
983.31980	237.80	6	21.026	
995.36270	421.40	6	11.865	
1011.60900	293.10	7	20.471	
1034.63630	465.50	5	8.593	
1046.12170	206.50	3	9.685	
1060.35630	315.90	6	15.828	
1076.77750	411.00	3	4.866	
1091.59690	311.60	3	6.418	
1105.71180	182.00	2	5.495	
1118.89100	328.20	6	15.235	
1131.20980	242.50	3	8.247	
1156.44190	147.90	2	6.761	
1175.92360	306.90	5	13.034	
1197.88320	401.80	3	4.978	
1210.16320	367.80	4	8.157	
1220.72290	346.80	7	17.301	
1228.64460	352.00	6	14.205	
1257.95370	363.50	6	13.755	
1268.09090	259.30	3	7.713	
1281.50150	767.60	5	5.211	
1293.14440	162.40	2	6.158	
1306.30450	390.00	3	5.128	
1342.26180	282.90	3	7.070	
1350.91170	284.40	4	10.549	
1368.84840	349.80	4	8.576	
1375.43440	201.20	2	4.970	
1381.03890	393.90	3	5.077	
1399.91140	356.70	13	33.642	
1411.50870	255.80	4	11.728	
1420.96300	289.70	5	13.807	
1441.09520	342.90	5	11.665	
1450.15650	242.80	2	4.119	
1472.82440	303.90	6	16.453	
1523.10720	187.40	2	5.336	
1542.99980	299.60	8	23.364	
1555.06160	494.60	7	12.131	
1578.83840	326.90	5	12.236	
1593.88490	442.70	7	13.553	
1605.89030	269.50	6	18.553	
1625.71910	273.30	4	10.977	
1632.22910	337.10	5	11.866	
1639.44120	227.90	2	4.388	
1645.67090	139.20	2	7.184	
1652.30150	182.50	3	10.959	
1690.54990	187.20	2	5.342	
1739.61190	291.60	3	6.859	
1745.87980	378.20	6	13.221	
1759.13260	223.10	3	8.965	
1771.34860	381.60	9	20.964	
1823.51370	166.90	2	5.992	
1838.57770	309.30	6	16.166	
1846.79480	192.00	3	10.417	
1856.97920	323.70	2	3.089	
1871.35440	191.10	5	20.931	
1875.28320	170.60	5	23.447	
1881.72890	235.10	2	4.254	
1892.53370	405.40	3	4.933	
1897.93170	191.40	2	5.225	
1923.27780	427.60	5	9.355	
1932.57260	404.70	4	7.413	
1936.70850	275.50	3	7.260	
1955.05070	241.80	2	4.136	
1970.56450	313.00	6	15.974	
1981.17000	321.50	5	12.442	
2000.07070	194.30	3	10.293	
2006.25020	169.20	2	5.910	
2022.74630	303.40	3	6.592	
2028.72540	367.00	5	10.899	
2043.47260	431.90	4	6.946	
2059.40370	415.60	2	2.406	
2070.00300	233.30	2	4.286	
2083.36120	260.70	6	19.179	
2089.42190	301.20	10	29.880	
2106.39340	417.90	6	11.965	
2131.32180	362.40	2	2.759	
2149.98230	204.10	2	4.900	
2167.37190	367.60	4	8.161	
2177.31950	415.50	9	19.254	
2182.90860	348.70	6	14.339	
2204.87240	227.60	5	17.575	
2214.87560	297.90	3	6.714	
2222.91180	242.40	4	12.376	
2235.51410	339.10	4	8.847	
2243.59960	399.20	3	5.010	
2260.78780	180.70	3	11.068	
2265.28920	467.20	9	17.123	
2272.55280	211.00	3	9.479	
2279.25200	272.60	3	7.337	
2304.13700	402.90	14	32.266	
2326.00290	344.40	3	5.807	
2344.40600	287.70	3	6.952	
2349.61020	337.70	2	2.961	
2352.47980	306.40	7	19.582	
2366.63450	325.00	13	36.923	
2374.63010	309.40	6	16.160	
2387.13550	180.10	2	5.552	
2394.67850	270.80	11	36.928	
2408.82420	311.40	5	12.845	
2412.69770	275.20	4	10.901	
2421.53350	333.60	2	2.998	
2427.79440	145.50	2	6.873	
2431.91400	329.50	7	18.209	
2438.59220	234.80	2	4.259	
2445.00680	503.00	2	1.988	
2470.75680	242.00	2	4.132	
2500.43420	309.30	2	3.233	
2511.03190	186.50	2	5.362	
2524.30150	203.10	2	4.924	
2528.98630	321.90	4	9.320	
2535.00450	430.60	6	11.612	
2547.98260	260.00	3	7.692	
2561.06090	447.50	9	17.877	
2565.93750	305.70	3	6.542	
2575.00340	260.70	4	11.507	
2583.53100	228.70	6	21.863	
2590.11840	253.70	7	23.650	
2595.27690	166.50	2	6.006	
2601.36580	239.60	4	12.521	
2606.75650	494.00	2	2.024	
2625.79310	479.10	6	10.436	
2632.59480	399.30	3	5.009	
2638.22950	299.50	3	6.678	
2653.27020	373.60	4	8.030	
2670.82090	397.70	4	7.543	
2677.10300	246.30	10	36.541	
2681.25620	356.80	8	19.619	
2687.93690	252.90	2	3.954	
2692.87800	181.20	4	16.556	
2699.37090	302.60	5	13.219	
2716.19990	233.00	5	17.167	
2726.30510	297.20	5	13.459	
2736.62430	415.70	4	7.217	
2742.80200	376.90	3	5.306	
2747.61460	172.20	3	11.614	
2754.38300	255.40	7	23.493	
2767.70210	375.00	3	5.333	
2779.75630	360.10	5	11.108	
2786.32040	364.10	13	32.958	
2791.46980	332.60	3	6.013	
2812.71460	390.00	3	5.128	
2817.01520	316.00	10	28.481	
2827.32060	383.00	3	5.222	
2831.03590	173.90	4	17.251	
2837.51460	276.20	3	7.241	
2859.26640	347.00	8	20.173	
2870.63230	281.20	5	14.225	
2880.17120	188.40	2	5.308	
2885.27230	314.00	3	6.369	
2889.28220	475.20	6	10.522	
2896.13880	340.00	3	5.882	
2899.76210	282.10	3	7.090	
2905.02160	281.40	3	7.107	
2909.87150	167.50	2	5.970	
2914.66170	143.80	2	6.954	
2919.89000	285.60	3	7.003	
2927.03080	145.60	2	6.868	
2936.32200	315.70	7	19.005	
2968.14020	251.40	3	7.955	
2972.32530	272.70	2	3.667	
2977.60690	199.90	3	10.005	
2993.82140	444.60	6	11.246	
2999.62210	255.20	3	7.837	
3014.79380	440.60	5	9.079	
3037.63540	281.80	5	14.194	
3044.08710	409.80	4	7.321	
3052.37930	302.00	5	13.245	
3068.89340	290.80	4	10.316	
3072.25810	177.90	5	22.485	
3079.35500	260.70	4	11.507	
3089.54280	412.60	9	19.389	
3093.33990	337.00	4	8.902	
3106.51600	408.30	5	9.797	
3118.35780	424.00	4	7.075	
3144.91900	266.90	2	3.747	
3156.40570	180.80	2	5.531	
3161.03600	222.90	2	4.486	
3164.78150	252.10	3	7.933	
3177.59440	371.80	6	13.448	
3186.04190	381.10	5	10.496	
3192.85570	313.30	8	22.343	
3207.60300	228.80	3	8.741	
3214.50210	240.40	2	4.160	
3227.64380	358.80	2	2.787	
3252.83320	413.80	3	4.833	
3268.40860	311.60	8	22.465	
3273.60190	435.60	3	4.591	
3277.32540	447.10	5	8.947	
3282.23670	305.70	8	22.898	
3292.14060	310.50	5	12.882	
3314.34800	396.40	4	7.568	
3318.93050	316.60	4	9.476	
3326.73040	172.50	2	5.797	
3352.25470	280.00	2	3.571	
3363.95960	427.90	15	32.718	
3376.71330	324.30	3	6.167	
3379.97080	413.80	3	4.833	
3384.33480	397.20	4	7.553	
3389.58120	217.90	2	4.589	
3396.95250	390.70	4	7.679	
3404.36970	282.80	6	17.680	
3413.50310	402.30	3	4.971	
3419.49640	262.00	4	11.450	
3424.19790	230.80	3	8.666	
3431.21280	354.20	3	5.647	
3444.78270	414.80	4	7.232	
3459.24740	201.10	2	4.973	
3462.45680	332.80	3	6.010	
3471.17360	212.90	5	18.788	
3478.48670	263.80	2	3.791	
3486.08900	321.80	4	9.323	
3492.29960	326.30	4	9.194	
3499.68690	416.30	3	4.804	
3506.50940	226.00	2	4.425	
3510.46930	180.30	5	22.185	
3516.92560	315.30	7	19.029	
3540.92450	420.90	3	4.752	
3546.17980	195.40	2	5.118	
3556.21810	317.00	3	6.309	
3568.55510	223.90	5	17.865	
3587.30220	475.70	4	6.306	
3617.77230	278.40	7	21.552	
3637.57900	248.50	3	8.048	

t	35	35	35	
	Duration	Count	Frequency	
[s]	[ms]	[-]	[Hz]	
30.72870	185.00	2	5.405	
49.58020	161.90	2	6.177	
63.49200	410.20	5	9.751	
85.19460	163.90	3	12.203	
100.79090	375.80	4	7.983	
119.53030	203.60	2	4.912	
129.56750	415.60	3	4.812	
154.44420	535.20	27	48.580	
157.62350	356.70	3	5.607	
162.69410	443.10	3	4.514	
184.54650	172.40	2	5.800	
211.78640	478.70	7	12.534	
227.32060	437.20	15	32.022	
248.25110	200.60	3	9.970	
261.36020	506.10	8	13.831	
282.75270	528.30	8	13.250	
291.18910	425.30	10	21.162	
315.37950	235.90	2	4.239	
339.31920	385.40	4	7.784	
347.99900	457.70	4	6.555	
362.31270	485.60	6	10.297	
369.90650	429.80	3	4.653	
376.90790	471.90	7	12.715	
388.19830	357.30	8	19.591	
403.48150	454.50	3	4.400	
419.15730	194.00	2	5.155	
428.17220	175.70	2	5.692	
438.40740	451.10	5	8.867	
449.88350	464.80	9	17.212	
463.43560	507.60	5	7.880	
469.66880	266.20	4	11.270	
478.87420	392.10	5	10.201	
485.24030	410.70	6	12.174	
492.02030	393.30	4	7.628	
502.11920	335.70	4	8.937	
515.37930	332.80	4	9.014	
526.64840	389.60	5	10.267	
538.44400	175.30	3	11.409	
550.13860	260.20	5	15.373	
560.57740	477.30	4	6.285	
570.19860	374.40	3	5.342	
578.80310	470.30	12	23.389	
586.63160	204.40	2	4.892	
599.32090	434.50	6	11.507	
607.16230	408.70	4	7.340	
616.31360	536.60	15	26.090	
623.51400	199.40	2	5.015	
630.29910	347.20	3	5.760	
637.01690	329.20	3	6.075	
646.40550	404.20	5	9.896	
652.03960	171.60	4	17.483	
664.41300	426.10	7	14.081	
685.23020	165.70	2	6.035	
691.94950	375.10	17	42.655	
701.19750	197.20	2	5.071	
713.14190	341.70	3	5.853	
732.51010	376.40	3	5.313	
744.81080	376.10	4	7.977	
750.87980	172.60	2	5.794	
759.80860	446.80	3	4.476	
766.39110	388.60	5	10.293	
773.51290	181.30	2	5.516	
781.90070	552.80	6	9.045	
797.92150	397.10	10	22.664	
807.89850	564.80	15	24.788	
813.71480	414.80	6	12.054	
820.38390	177.30	2	5.640	
827.60750	170.40	3	11.737	
837.40140	212.10	2	4.715	
845.99330	398.30	3	5.021	
852.97320	438.80	3	4.558	
858.74900	405.00	4	7.407	
866.95380	392.40	5	10.194	
875.84070	403.90	4	7.428	
880.48360	165.60	2	6.039	
885.63380	417.50	3	4.790	
898.27290	553.20	31	54.230	
904.66960	380.40	3	5.258	
910.51350	350.10	5	11.425	
921.71560	403.80	4	7.429	
927.74340	437.00	4	6.865	
933.69960	440.10	21	45.444	
945.96480	502.80	7	11.933	
954.97550	451.20	5	8.865	
965.30280	353.00	3	5.666	
972.60380	418.90	6	11.936	
983.31820	141.20	2	7.082	
995.36180	230.50	3	8.677	
999.59760	413.20	12	26.621	
1011.60840	383.10	6	13.051	
1016.58750	458.40	8	15.271	
1028.44130	520.30	3	3.844	
1034.63520	496.10	4	6.047	
1046.11920	172.70	2	5.790	
1054.81360	383.40	7	15.649	
1060.35320	418.10	3	4.784	
1067.11400	522.20	14	24.895	
1076.77610	478.00	7	12.552	
1085.58350	370.00	13	32.432	
1091.59490	383.20	4	7.829	
1105.70930	170.60	2	5.862	
1112.76820	419.20	3	4.771	
1118.88880	447.80	3	4.466	
1131.20880	467.30	4	6.420	
1137.21910	386.70	3	5.172	
1146.69280	498.70	9	16.042	
1150.51980	425.20	12	25.870	
1156.44100	133.50	2	7.491	
1164.04430	350.70	6	14.257	
1175.92310	381.20	5	10.493	
1185.40370	478.40	13	25.084	
1197.88240	449.40	3	4.450	
1204.34780	427.70	4	7.014	
1210.16240	447.10	7	13.420	
1220.72200	197.90	3	10.106	
1228.64320	432.80	5	9.242	
1240.39780	462.80	7	12.965	
1250.70240	501.40	11	19.944	
1257.95240	432.20	4	6.941	
1268.08870	139.30	2	7.179	
1281.50050	955.90	20	19.877	
1293.14270	374.10	5	10.692	
1306.30320	204.10	2	4.900	
1313.64110	422.00	23	52.133	
1319.79810	455.80	8	15.358	
1325.09440	487.90	11	20.496	
1336.93180	489.30	7	12.262	
1342.26060	413.00	4	7.264	
1350.91120	375.90	3	5.321	
1359.70650	465.60	6	10.739	
1368.84710	402.40	4	7.455	
1375.43290	412.90	3	4.844	
1381.03710	194.90	3	10.262	
1389.90650	482.30	12	22.807	
1399.91060	448.90	4	6.683	
1405.60860	407.20	5	9.823	
1411.50630	318.60	3	6.277	
1420.96190	507.30	8	13.799	
1428.57480	402.80	6	12.413	
1433.89180	373.60	6	13.383	
1441.09350	407.80	3	4.904	
1450.15410	427.40	3	4.679	
1458.04220	441.10	8	15.869	
1472.82300	212.00	2	4.717	
1483.38470	358.10	5	11.170	
1493.90310	476.40	12	23.090	
1503.31620	172.20	4	17.422	
1508.18330	445.40	11	22.452	
1523.10550	382.30	3	5.231	
1532.75590	449.60	7	13.345	
1542.99880	414.40	4	7.239	
1547.39940	450.30	8	15.545	
1555.06040	228.80	3	8.741	
1566.70850	515.80	21	38.775	
1578.83790	423.90	3	4.718	
1593.88410	496.40	5	8.058	
1598.12240	486.10	10	18.515	
1605.88840	352.00	7	17.045	
1614.64420	534.90	5	7.478	
1625.71790	350.40	4	8.562	
1632.22840	439.70	3	4.549	
1639.43950	388.40	3	5.149	
1645.66920	376.90	4	7.960	
1652.30000	360.60	4	8.319	
1675.23630	492.50	4	6.091	
1683.23440	411.20	17	38.911	
1690.54680	372.50	4	8.054	
1705.86880	535.30	12	20.549	
1714.49190	237.80	3	8.410	
1719.16220	531.60	10	16.930	
1730.01130	404.10	10	22.272	
1739.61110	462.10	4	6.492	
1745.87750	164.00	2	6.098	
1759.13120	436.20	3	4.585	
1771.34770	187.10	4	16.034	
1781.55300	530.20	14	24.519	
1792.67690	458.90	5	8.716	
1801.48940	391.40	5	10.220	
1807.14670	508.50	17	31.465	
1815.79880	490.30	4	6.119	
1823.51250	370.80	3	5.394	
1838.57620	177.60	3	11.261	
1846.79380	353.90	6	14.128	
1856.97820	222.30	2	4.498	
1864.88030	505.70	5	7.910	
1871.35320	371.20	4	8.082	
1875.28190	348.30	7	17.227	
1881.72750	378.60	3	5.283	
1892.53260	178.50	2	5.602	
1897.93060	153.80	4	19.506	
1909.09610	443.80	6	11.266	
1923.27540	230.60	2	4.337	
1932.57160	472.00	4	6.356	
1936.70700	378.80	3	5.280	
1943.92670	488.30	5	8.192	
1955.04820	446.50	3	4.479	
1965.02890	436.20	6	11.463	
1970.56310	442.00	6	11.312	
1981.16850	436.70	5	9.160	
1987.14290	435.50	4	6.889	
1993.59990	461.20	12	23.851	
2000.06980	368.00	4	8.152	
2006.24900	342.70	4	8.754	
2013.36910	398.00	12	27.638	
2022.74580	446.70	8	15.670	
2028.72430	210.30	3	9.510	
2035.66300	468.70	11	21.336	
2043.47180	201.30	3	9.935	
2054.20670	233.00	6	21.459	
2059.40270	512.00	7	11.719	
2065.54930	411.40	5	9.723	
2070.00160	197.10	2	5.074	
2083.36050	412.70	5	9.692	
2089.42090	390.90	3	5.116	
2095.33720	415.50	4	7.220	
2100.74590	408.80	4	7.339	
2106.39150	181.30	2	5.516	
2117.93310	391.70	4	7.659	
2131.32060	509.50	5	7.851	
2137.97000	491.90	8	14.231	
2142.80290	190.40	4	15.756	
2149.98160	409.70	3	4.882	
2155.58500	438.40	4	6.843	
2160.69610	454.90	4	6.595	
2167.37100	450.30	5	8.883	
2171.90620	367.10	3	5.448	
2177.31780	462.00	4	6.494	
2182.90710	479.30	4	6.259	
2190.52040	472.70	11	21.155	
2197.05610	340.70	9	23.481	
2204.87090	178.20	2	5.612	
2211.19140	456.80	10	19.702	
2214.87320	372.30	3	5.372	
2222.91070	129.10	2	7.746	
2229.17010	298.60	7	20.094	
2235.51330	439.80	5	9.095	
2243.59850	439.40	4	6.827	
2250.13970	494.60	6	10.109	
2256.16860	385.00	4	7.792	
2260.78680	342.10	3	5.846	
2265.28810	217.50	3	9.195	
2272.55170	174.00	2	5.747	
2279.25070	346.20	3	5.777	
2283.77720	234.70	6	21.304	
2295.02760	533.60	7	11.244	
2299.27390	445.50	15	31.425	
2304.13570	211.60	2	4.726	
2313.42410	475.80	7	12.610	
2320.03420	486.20	18	34.965	
2326.00170	396.40	4	7.568	
2332.88660	280.90	6	17.800	
2337.51570	359.40	4	8.347	
2344.40430	204.60	3	9.775	
2349.60840	404.20	3	4.948	
2352.47610	405.20	3	4.936	
2362.19120	487.10	5	8.212	
2366.63330	439.90	4	6.820	
2374.62960	191.90	2	5.211	
2380.03510	162.00	2	6.173	
2387.13360	367.90	5	10.873	
2394.67710	398.10	6	12.560	
2402.74440	330.30	4	9.083	
2408.82300	187.20	3	10.684	
2412.69630	338.40	4	8.865	
2421.53220	459.40	6	10.884	
2427.79370	329.40	4	9.107	
2431.91280	433.50	5	9.227	
2438.59150	380.10	3	5.262	
2445.00560	557.60	12	19.727	
2451.59240	432.70	8	16.177	
2456.18720	372.10	5	10.750	
2463.48600	436.80	8	16.026	
2470.75430	198.00	5	20.202	
2477.10810	513.50	6	9.737	
2482.78380	390.50	4	7.682	
2489.38050	305.90	7	19.614	
2495.97110	336.40	4	8.918	
2500.43300	452.50	8	15.470	
2506.53560	472.50	11	21.164	
2511.03020	370.70	3	5.395	
2524.29980	345.00	4	8.696	
2528.98370	142.50	2	7.018	
2535.00370	193.00	2	5.181	
2543.95450	442.80	10	20.325	
2547.98140	357.10	4	8.401	
2552.57520	188.40	2	5.308	
2561.05990	225.50	3	8.869	
2565.93660	406.80	4	7.375	
2575.00230	174.90	4	17.153	
2583.52970	301.00	6	16.611	
2590.11740	136.00	2	7.353	
2595.27400	151.50	3	13.201	
2601.36480	378.90	3	5.278	
2606.75530	513.00	11	19.493	
2613.54280	241.70	4	12.412	
2619.53730	316.40	8	22.124	
2625.79170	501.50	3	3.988	
2632.59320	435.90	5	9.176	
2638.22790	442.00	3	4.525	
2646.09520	509.30	7	11.781	
2653.26890	190.00	3	10.526	
2659.27090	127.90	2	7.819	
2665.30320	388.30	3	5.151	
2670.81990	464.60	5	8.610	
2677.10150	369.40	4	8.121	
2681.25540	418.50	3	4.779	
2687.93080	206.90	2	4.833	
2692.87620	299.90	6	16.672	
2699.36890	149.20	2	6.702	
2706.71910	515.00	8	13.592	
2711.95930	377.20	3	5.302	
2716.19850	179.30	2	5.577	
2722.21060	340.70	22	61.638	
2726.30400	381.10	4	7.872	
2736.62300	204.00	2	4.902	
2742.80090	418.90	3	4.774	
2747.61240	372.60	6	13.419	
2754.38020	487.90	4	6.149	
2759.66760	459.50	6	10.881	
2767.70110	506.50	6	9.872	
2773.24610	332.20	5	12.041	
2779.75410	410.10	5	9.754	
2786.31910	191.40	2	5.225	
2791.46860	208.00	2	4.808	
2797.02870	426.00	6	11.737	
2804.68900	245.60	2	4.072	
2812.71340	284.10	3	7.040	
2817.01390	450.30	3	4.441	
2827.31960	463.10	3	4.319	
2831.03480	293.90	4	10.208	
2837.51260	359.10	5	11.139	
2841.47620	464.20	4	6.463	
2847.66210	377.20	6	13.256	
2853.06810	394.50	4	7.605	
2859.26490	425.00	5	9.412	
2870.63000	388.80	3	5.144	
2875.41620	551.00	4	5.445	
2880.17020	320.00	5	12.500	
2885.26940	171.90	2	5.817	
2889.28090	523.40	12	21.016	
2896.13660	157.40	2	6.353	
2899.76040	500.50	5	7.992	
2905.02060	426.60	5	9.376	
2909.86750	152.10	2	6.575	
2914.66050	132.80	3	15.060	
2919.88800	346.20	4	8.666	
2927.02980	538.20	10	16.722	
2932.40500	479.20	7	12.521	
2936.32030	176.50	2	5.666	
2941.83890	400.70	12	27.452	
2949.82190	514.10	20	36.958	
2955.48770	528.30	26	47.322	
2962.67800	504.70	21	39.628	
2968.13860	378.10	8	18.514	
2972.32370	202.40	3	9.881	
2977.60460	364.60	3	5.485	
2984.66220	469.50	5	8.520	
2993.81990	485.10	6	10.307	
2999.62110	434.60	4	6.903	
3002.53560	158.20	3	12.642	
3005.66470	535.80	9	14.931	
3009.96040	495.90	5	8.066	
3014.79210	229.00	4	13.100	
3024.96820	373.80	5	10.701	
3031.64960	458.70	9	17.441	
3037.63410	185.60	2	5.388	
3044.08540	275.50	4	10.889	
3048.65590	263.30	8	26.586	
3052.37790	372.10	3	5.375	
3058.51350	443.20	12	24.819	
3065.32210	500.50	6	9.990	
3068.88990	350.50	3	5.706	
3072.25540	148.60	2	6.729	
3079.35380	346.20	5	11.554	
3083.23100	136.60	2	7.321	
3089.54170	231.00	3	8.658	
3093.33840	413.10	3	4.841	
3102.05410	555.40	7	10.803	
3106.51460	472.90	5	8.458	
3112.95870	187.80	2	5.325	
3118.35690	266.60	2	3.751	
3123.37170	535.90	12	20.526	
3131.87380	528.10	7	11.361	
3137.19290	357.00	3	5.602	
3144.91690	205.10	2	4.876	
3149.43330	561.40	10	16.031	
3156.40470	156.00	2	6.410	
3161.03460	419.60	5	9.533	
3164.77980	445.60	4	6.732	
3172.75150	432.80	6	11.553	
3177.59280	453.40	3	4.411	
3183.00900	504.30	20	37.676	
3186.04040	459.30	5	8.709	
3192.85320	394.40	5	10.142	
3199.28760	457.70	7	13.109	
3207.60070	347.80	4	8.626	
3214.50060	432.10	7	13.886	
3221.41490	489.10	10	18.401	
3227.64220	519.20	4	5.778	
3234.03830	309.90	6	16.134	
3239.36320	563.80	8	12.416	
3244.56870	443.60	19	40.577	
3252.83160	203.20	2	4.921	
3258.02640	415.70	5	9.622	
3263.66660	433.50	8	16.148	
3268.40680	466.90	7	12.851	
3273.60020	225.90	2	4.427	
3277.32410	490.10	7	12.242	
3282.23500	381.50	3	5.242	
3287.14040	348.50	6	14.347	
3292.13930	186.50	3	10.724	
3297.57610	474.90	7	12.634	
3304.56140	325.80	6	15.347	
3314.34660	199.10	2	5.023	
3318.92890	185.70	2	5.385	
3326.72670	367.90	4	8.154	
3330.62220	403.00	3	4.963	
3335.99390	501.80	5	7.971	
3340.61770	455.90	7	13.161	
3343.63290	412.90	4	7.266	
3352.25200	457.80	4	6.553	
3357.75920	458.50	6	10.905	
3363.95760	466.70	3	4.285	
3371.43490	537.40	6	9.304	
3376.71160	449.10	5	8.907	
3379.96870	459.10	3	4.356	
3384.33220	221.50	2	4.515	
3389.57590	437.50	3	4.571	
3396.95080	503.50	4	5.958	
3404.36870	180.80	4	16.593	
3413.50230	530.10	4	5.659	
3419.49500	147.00	3	13.605	
3424.19480	410.00	3	4.878	
3431.21150	413.10	3	4.841	
3437.62810	322.90	17	49.551	
3444.78130	489.90	3	4.082	
3451.76180	450.50	19	39.956	
3459.24400	362.80	6	13.782	
3462.45420	178.30	3	11.217	
3467.88630	393.10	10	22.895	
3471.17190	306.60	6	16.308	
3478.48550	443.50	4	6.764	
3486.08740	447.90	4	6.698	
3492.29700	403.80	5	9.906	
3499.68570	524.40	8	13.349	
3506.50780	194.20	4	15.448	
3510.46780	291.40	4	10.295	
3516.92270	197.20	2	5.071	
3525.29220	448.20	7	13.387	
3529.35450	266.80	8	26.237	
3535.10880	529.30	14	24.561	
3540.92360	479.30	5	8.346	
3546.17700	174.80	4	17.162	
3550.58160	299.00	3	6.689	
3556.21640	179.90	3	11.117	
3564.39570	384.00	6	13.021	
3568.55400	295.70	4	10.145	
3572.84290	316.30	4	9.485	
3580.21200	407.50	4	7.362	
3587.30120	518.10	6	9.651	
3592.75910	294.80	4	10.176	
3599.04410	459.80	6	10.874	
3607.36720	170.40	3	11.737	
3612.37720	495.60	6	10.089	
3617.76990	362.60	5	11.031	
3622.43940	343.70	4	8.729	
3627.84460	439.70	20	43.211	
3637.57730	424.70	7	14.128	

t	36	36	36	
	Duration	Count	Frequency	
[s]	[ms]	[-]	[Hz]	
30.72990	132.20	3	15.129	
49.58520	34.30	2	29.155	
63.49420	130.90	3	15.279	
85.20120	39.60	3	50.505	
100.79260	140.90	4	21.292	
119.53240	523.30	8	13.377	
129.56840	139.40	5	28.694	
154.44520	201.10	6	24.863	
157.62630	37.60	2	26.596	
162.69610	337.60	6	14.810	
184.54840	133.70	3	14.959	
211.78730	186.00	6	26.882	
227.32150	31.10	3	64.309	
248.25260	124.90	5	32.026	
261.36100	32.30	3	61.920	
282.75450	448.80	5	8.913	
291.19170	32.90	3	60.790	
315.38060	212.20	7	28.275	
339.32070	168.20	5	23.781	
348.00030	125.00	5	32.000	
362.31320	119.20	4	25.168	
369.90710	106.40	5	37.594	
376.90910	31.80	3	62.893	
388.19930	30.60	3	65.359	
403.48220	138.30	4	21.692	
419.15850	110.30	4	27.199	
428.17420	143.30	6	34.892	
438.40880	109.70	4	27.347	
449.88450	109.70	4	27.347	
463.43750	126.30	6	39.588	
469.66970	421.00	6	11.876	
478.87530	119.30	4	25.147	
485.24090	123.90	4	24.213	
492.02130	104.20	4	28.791	
502.12070	33.70	3	59.347	
515.38120	32.90	3	60.790	
526.65010	34.60	3	57.803	
538.44450	145.30	3	13.765	
550.13930	113.70	4	26.385	
560.57860	375.60	5	10.650	
570.19890	63.80	3	31.348	
578.80400	32.50	3	61.538	
586.63210	127.10	5	31.471	
599.32190	116.30	4	25.795	
607.16350	36.10	3	55.402	
616.31430	529.40	8	13.223	
623.51480	98.00	4	30.612	
630.29960	39.20	2	25.510	
637.01760	67.30	4	44.577	
646.40730	65.20	5	61.350	
652.04240	35.30	3	56.657	
664.41420	34.20	3	58.480	
685.23100	65.80	3	30.395	
691.95040	34.10	3	58.651	
701.20040	108.00	3	18.519	
713.14280	35.90	3	55.710	
732.51090	162.30	5	24.646	
744.81200	33.60	3	59.524	
750.88160	132.70	5	30.143	
759.81000	110.30	4	27.199	
766.39200	116.00	4	25.862	
773.51370	35.90	3	55.710	
781.90230	493.60	5	8.104	
797.92320	33.10	3	60.423	
807.89950	170.10	6	29.394	
813.71650	129.70	4	23.130	
820.38620	142.10	5	28.149	
827.60930	37.30	2	26.810	
837.40370	372.20	7	16.120	
845.99450	43.00	2	23.256	
852.97450	119.60	3	16.722	
858.75150	112.60	4	26.643	
866.95520	34.30	3	58.309	
875.84250	34.10	3	58.651	
880.48430	39.10	2	25.575	
885.63430	35.20	3	56.818	
898.27350	31.80	3	62.893	
904.67020	36.00	3	55.556	
910.51470	35.30	3	56.657	
921.71620	35.60	3	56.180	
927.74430	110.60	4	27.125	
933.70040	33.40	3	59.880	
945.96570	64.30	4	46.656	
954.97680	66.10	4	45.386	
965.30510	37.30	2	26.810	
972.60450	139.60	6	35.817	
983.31970	33.20	3	60.241	
995.36250	113.30	5	35.305	
999.59870	117.70	4	25.489	
1011.60930	34.00	3	58.824	
1016.58870	176.30	7	34.033	
1028.44220	107.50	5	37.209	
1034.63610	414.10	8	16.904	
1046.12250	38.20	2	26.178	
1054.81590	64.00	4	46.875	
1060.35700	51.90	4	57.803	
1067.11470	33.40	3	59.880	
1076.77760	117.20	4	25.597	
1085.58520	32.70	3	61.162	
1091.59630	37.20	3	53.763	
1105.71130	42.60	2	23.474	
1112.76910	149.10	8	46.948	
1118.89080	115.10	4	26.064	
1131.20990	34.30	3	58.309	
1137.22010	33.00	3	60.606	
1146.69420	33.50	3	59.701	
1150.52160	31.50	3	63.492	
1156.44180	33.30	3	60.060	
1164.04490	33.50	3	59.701	
1175.92400	32.70	3	61.162	
1185.40500	157.40	5	25.413	
1197.88330	109.40	4	27.422	
1204.34900	32.30	3	61.920	
1210.16320	115.10	4	26.064	
1220.72240	134.20	3	14.903	
1228.64460	116.50	6	42.918	
1240.39860	121.40	4	24.712	
1250.70350	32.20	3	62.112	
1257.95390	109.00	4	27.523	
1268.09060	74.20	3	26.954	
1281.50180	1049.50	6	4.764	
1293.14370	36.80	2	27.174	
1306.30400	135.70	3	14.738	
1313.64220	33.20	3	60.241	
1319.79940	31.80	3	62.893	
1325.09570	112.40	4	26.690	
1336.93300	113.00	5	35.398	
1342.26180	115.20	4	26.042	
1350.91230	130.50	4	22.989	
1359.70780	123.80	4	24.233	
1368.84950	34.30	3	58.309	
1375.43480	143.40	5	27.894	
1381.03820	112.10	3	17.841	
1389.90810	156.10	5	25.625	
1399.91130	117.30	4	25.575	
1405.60990	101.50	5	39.409	
1411.50900	33.90	3	58.997	
1420.96290	33.50	3	59.701	
1428.57660	32.70	3	61.162	
1433.89420	34.30	2	29.155	
1441.09490	144.60	5	27.663	
1450.15680	109.80	3	18.215	
1458.04330	150.90	4	19.881	
1472.82470	104.30	4	28.763	
1483.38650	33.20	2	30.120	
1493.90380	153.90	6	32.489	
1503.31710	35.00	2	28.571	
1508.18410	33.60	3	59.524	
1523.10670	37.70	2	26.525	
1532.75670	135.30	3	14.782	
1542.99980	34.50	2	28.986	
1547.40090	62.00	3	32.258	
1555.06160	421.80	5	9.483	
1566.70990	33.00	2	30.303	
1578.83960	155.80	4	19.255	
1593.88490	451.30	5	8.863	
1598.12320	116.40	3	17.182	
1605.89080	35.30	2	28.329	
1614.64500	486.90	6	10.269	
1625.71920	33.50	2	29.851	
1632.22920	106.70	3	18.744	
1639.44140	116.70	3	17.138	
1645.67120	33.70	2	29.674	
1652.30180	33.70	2	29.674	
1675.23760	117.40	3	17.036	
1683.23510	171.80	7	34.924	
1690.54990	33.80	2	29.586	
1705.87000	32.10	2	31.153	
1714.49260	111.00	4	27.027	
1719.16370	31.20	2	32.051	
1730.01180	31.10	2	32.154	
1739.61180	112.20	4	26.738	
1745.87910	34.30	2	29.155	
1759.13310	125.80	3	15.898	
1771.34870	120.70	3	16.570	
1781.55410	30.80	2	32.468	
1792.67790	123.70	3	16.168	
1801.49040	30.80	2	32.468	
1807.14720	124.00	3	16.129	
1815.79990	108.50	3	18.433	
1823.51380	33.60	2	29.762	
1838.57760	133.10	4	22.539	
1846.79480	31.40	2	31.847	
1856.97910	113.70	3	17.590	
1864.88150	177.90	4	16.863	
1871.35420	33.50	2	29.851	
1875.28260	30.90	2	32.362	
1881.72860	109.20	4	27.473	
1892.53320	112.40	3	17.794	
1897.93140	31.60	2	31.646	
1909.09680	110.70	3	18.067	
1923.27750	116.70	3	17.138	
1932.57240	180.20	4	16.648	
1936.70770	35.30	2	28.329	
1943.92750	178.90	5	22.359	
1955.05040	113.60	3	17.606	
1965.02980	144.90	4	20.704	
1970.56440	98.50	3	20.305	
1981.17030	153.90	4	19.493	
1987.14470	155.20	4	19.330	
1993.60060	31.90	2	31.348	
2000.07070	33.30	2	30.030	
2006.25040	51.80	3	38.610	
2013.37090	139.10	4	21.567	
2022.74680	35.50	2	28.169	
2028.72500	111.70	3	17.905	
2035.66420	32.50	2	30.769	
2043.47290	345.20	4	8.691	
2054.20790	126.30	3	15.835	
2059.40320	114.20	4	26.270	
2065.55030	31.10	2	32.154	
2070.00260	101.10	3	19.782	
2083.36150	32.20	2	31.056	
2089.42180	122.90	4	24.410	
2095.33810	32.00	2	31.250	
2100.74790	123.00	3	16.260	
2106.39230	125.00	4	24.000	
2117.93400	124.20	3	16.103	
2131.32170	119.20	4	25.168	
2137.97060	135.60	5	29.499	
2142.80390	142.40	5	28.090	
2149.98320	135.20	3	14.793	
2155.58650	111.50	3	17.937	
2160.69700	111.80	3	17.889	
2167.37190	111.10	3	18.002	
2171.90700	33.80	2	29.586	
2177.31990	122.60	3	16.313	
2182.90840	418.00	5	9.569	
2190.52110	116.00	3	17.241	
2197.05700	31.50	2	31.746	
2204.87200	117.80	3	16.978	
2211.19240	32.10	2	31.153	
2214.87540	53.50	3	37.383	
2222.91180	35.90	2	27.855	
2229.17090	30.40	2	32.895	
2235.51430	106.90	3	18.709	
2243.59890	102.50	3	19.512	
2250.14020	131.30	3	15.232	
2256.16940	31.40	2	31.847	
2260.78740	35.50	2	28.169	
2265.28910	419.80	4	7.146	
2272.55230	109.00	4	27.523	
2279.25310	33.10	2	30.211	
2283.77870	31.30	2	31.949	
2295.02840	142.10	3	14.075	
2299.27480	115.90	3	17.256	
2304.13650	98.70	3	20.263	
2313.42480	32.20	2	31.056	
2320.03540	146.10	3	13.689	
2326.00330	102.60	4	29.240	
2332.88730	30.40	2	32.895	
2337.51630	31.80	2	31.447	
2344.40580	106.70	3	18.744	
2349.61020	101.20	3	19.763	
2352.48030	35.40	2	28.249	
2362.19210	117.70	3	16.992	
2366.63480	36.50	2	27.397	
2374.63030	113.30	3	17.652	
2380.03610	33.20	2	30.120	
2387.13450	36.20	2	27.624	
2394.67900	33.00	2	30.303	
2402.74540	32.40	2	30.864	
2408.82420	110.70	3	18.067	
2412.69700	34.90	2	28.653	
2421.53350	122.50	3	16.327	
2427.79450	33.80	2	29.586	
2431.91450	104.20	3	19.194	
2438.59190	102.50	3	19.512	
2445.00650	495.10	4	6.059	
2451.59320	31.70	2	31.546	
2456.18820	33.60	2	29.762	
2463.48720	129.00	3	15.504	
2470.75710	380.90	5	10.501	
2477.10900	29.80	2	33.557	
2482.78440	32.40	2	30.864	
2489.38140	32.40	2	30.864	
2495.97200	31.60	2	31.646	
2500.43420	108.20	3	18.484	
2506.53630	116.70	3	17.138	
2511.03150	37.20	2	26.882	
2524.30080	33.00	2	30.303	
2528.98670	34.50	2	28.986	
2535.00450	393.10	4	7.632	
2543.95570	117.90	3	16.964	
2547.98300	33.90	2	29.499	
2552.57590	117.00	3	17.094	
2561.06140	374.50	4	8.011	
2565.93740	33.40	2	29.940	
2575.00320	31.00	2	32.258	
2583.53030	32.30	2	30.960	
2590.11810	34.20	2	29.240	
2595.27580	40.50	2	24.691	
2601.36600	31.30	2	31.949	
2606.75590	30.50	2	32.787	
2613.54480	102.10	3	19.589	
2619.53820	30.10	2	33.223	
2625.79270	436.20	5	9.170	
2632.59580	106.40	3	18.797	
2638.22950	106.90	3	18.709	
2646.09580	122.10	3	16.380	
2653.26970	110.40	3	18.116	
2659.27190	30.70	2	32.573	
2665.30460	34.30	2	29.155	
2670.82060	103.00	3	19.417	
2677.10280	32.30	2	30.960	
2681.25580	108.70	3	18.399	
2687.93690	105.20	3	19.011	
2692.87760	31.00	2	32.258	
2699.37030	34.70	2	28.818	
2706.72010	116.00	3	17.241	
2711.96120	105.20	3	19.011	
2716.20010	131.90	3	15.163	
2722.21140	30.90	2	32.362	
2726.30460	32.80	2	30.488	
2736.62390	110.30	3	18.132	
2742.80230	108.90	3	18.365	
2747.61470	32.50	2	30.769	
2754.38350	70.50	3	28.369	
2759.66850	133.60	3	14.970	
2767.70190	113.80	3	17.575	
2773.24640	31.70	2	31.546	
2779.75630	118.30	3	16.906	
2786.32050	109.50	3	18.265	
2791.46930	401.80	6	12.444	
2797.02900	157.70	4	19.023	
2804.68990	111.80	3	17.889	
2812.71470	417.90	4	7.179	
2817.01490	31.00	2	32.258	
2827.32040	136.00	3	14.706	
2831.03510	30.70	2	32.573	
2837.51490	34.30	2	29.155	
2841.47780	113.80	3	17.575	
2847.66310	124.10	3	16.116	
2853.06920	31.30	2	31.949	
2859.26640	31.30	2	31.949	
2870.63090	138.00	3	14.493	
2875.41670	33.60	2	29.762	
2880.17090	30.50	2	32.787	
2885.27320	111.70	3	17.905	
2889.28230	495.30	7	12.114	
2896.13910	131.50	3	15.209	
2899.76160	390.90	4	7.675	
2905.02150	143.30	5	27.913	
2909.87110	35.20	2	28.409	
2914.66230	32.70	2	30.581	
2919.89130	42.50	2	23.529	
2927.03070	72.10	3	27.739	
2932.40580	112.00	4	26.786	
2936.32250	118.90	5	33.642	
2941.84020	164.20	5	24.361	
2949.82250	30.40	2	32.895	
2955.48910	29.20	2	34.247	
2962.67920	182.60	4	16.429	
2968.14050	33.90	2	29.499	
2972.32510	107.50	3	18.605	
2977.60600	33.40	2	29.940	
2984.66390	121.20	4	24.752	
2993.82130	128.50	3	15.564	
2999.62210	112.20	3	17.825	
3002.53700	36.20	2	27.624	
3005.66610	32.20	2	31.056	
3009.96080	163.40	4	18.360	
3014.79340	422.50	5	9.467	
3024.96990	31.30	2	31.949	
3031.65080	129.60	5	30.864	
3037.63510	133.00	4	22.556	
3044.08650	119.40	3	16.750	
3048.65690	31.90	2	31.348	
3052.37920	34.70	2	28.818	
3058.51460	31.00	2	32.258	
3065.32280	110.60	4	27.125	
3068.89390	34.60	2	28.902	
3072.25790	35.20	2	28.409	
3079.35520	32.40	2	30.864	
3083.23350	32.00	2	31.250	
3089.54320	105.30	3	18.993	
3093.33980	104.50	3	19.139	
3102.05640	31.00	2	32.258	
3106.51560	429.70	4	6.982	
3112.95930	116.60	3	17.153	
3118.35780	100.80	3	19.841	
3123.37440	30.90	2	32.362	
3131.87550	29.30	2	34.130	
3137.19340	132.80	3	15.060	
3144.91840	178.30	4	16.826	
3149.43460	524.20	3	3.815	
3156.40580	31.90	2	31.348	
3161.03510	140.30	5	28.510	
3164.78130	137.00	4	21.898	
3172.75240	113.50	4	26.432	
3177.59340	191.60	5	20.877	
3183.01010	30.60	2	32.680	
3186.04190	119.00	3	16.807	
3192.85560	29.90	2	33.445	
3199.28880	113.20	3	17.668	
3207.60280	32.10	2	31.153	
3214.50230	110.00	3	18.182	
3221.41670	28.80	2	34.722	
3227.64340	399.50	4	7.509	
3234.03910	162.80	4	18.428	
3239.36430	528.50	3	3.784	
3244.57030	29.70	2	33.670	
3252.83370	115.10	3	17.376	
3258.02770	185.50	4	16.173	
3263.66820	170.30	5	23.488	
3268.40840	135.10	4	22.206	
3273.60120	105.30	3	18.993	
3277.32530	154.90	7	38.735	
3282.23620	152.60	4	19.659	
3287.14200	29.60	2	33.784	
3292.14110	129.10	4	23.238	
3297.57750	30.60	2	32.680	
3304.56410	153.20	5	26.110	
3314.34740	125.30	3	15.962	
3318.93030	128.20	4	23.401	
3326.73000	34.80	2	28.736	
3330.62550	31.80	2	31.447	
3335.99440	116.00	3	17.241	
3340.61970	140.20	3	14.265	
3343.63630	31.30	2	31.949	
3352.25560	117.30	3	17.050	
3357.76020	121.50	4	24.691	
3363.95980	121.20	3	16.502	
3371.43590	137.20	4	21.866	
3376.71400	104.90	3	19.066	
3379.97070	136.40	3	14.663	
3384.33360	122.30	4	24.530	
3389.57890	144.90	4	20.704	
3396.95240	122.30	3	16.353	
3404.36960	30.50	2	32.787	
3413.50290	429.60	5	9.311	
3419.49620	32.80	2	30.488	
3424.19800	140.50	5	28.470	
3431.21310	182.70	4	16.420	
3437.62940	29.40	2	34.014	
3444.78310	220.60	5	18.132	
3451.76230	152.20	3	13.141	
3459.24750	33.70	2	29.674	
3462.45620	105.00	3	19.048	
3467.88750	28.90	3	69.204	
3471.17350	31.10	2	32.154	
3478.48740	107.40	4	27.933	
3486.08960	110.10	4	27.248	
3492.29920	112.90	3	17.715	
3499.68750	111.20	4	26.978	
3506.50980	124.00	3	16.129	
3510.46900	29.90	2	33.445	
3516.92490	174.00	4	17.241	
3525.29370	113.80	4	26.362	
3529.35540	30.00	2	33.333	
3535.10960	29.10	2	34.364	
3540.92420	117.70	4	25.489	
3546.18120	32.10	2	31.153	
3550.58250	30.20	2	33.113	
3556.21750	121.80	3	16.420	
3564.39690	131.60	5	30.395	
3568.55450	34.60	2	28.902	
3572.84360	31.20	2	32.051	
3580.21360	171.70	5	23.296	
3587.30210	110.90	4	27.051	
3592.76010	150.80	4	19.894	
3599.04530	125.60	4	23.885	
3607.36900	30.30	3	66.007	
3612.37910	109.30	3	18.298	
3617.77210	146.80	4	20.436	
3622.44050	31.10	2	32.154	
3627.84540	28.30	3	70.671	
3637.57930	138.90	5	28.798	

t	37	37	37	
	Duration	Count	Frequency	
[s]	[ms]	[-]	[Hz]	
30.73520	132.40	8	52.870	
63.49880	35.80	2	27.933	
85.21100	108.60	4	27.624	
100.80010	104.80	4	28.626	
119.53530	109.40	3	18.282	
129.57180	92.30	3	21.668	
162.69980	77.50	3	25.806	
184.55730	35.70	3	56.022	
248.25510	114.90	3	17.406	
282.75740	117.40	5	34.072	
315.38410	119.50	3	16.736	
339.32530	108.10	5	37.003	
362.31630	131.00	8	53.435	
369.91090	122.20	4	24.550	
403.48630	33.80	2	29.586	
419.16340	131.80	4	22.762	
438.41090	129.80	4	23.112	
449.88700	115.30	5	34.692	
463.44160	106.80	4	28.090	
478.88070	97.40	3	20.534	
492.02540	108.00	3	18.519	
502.12440	34.70	2	28.818	
538.44930	100.80	2	9.921	
550.14270	124.30	6	40.225	
560.58210	117.90	4	25.445	
570.20630	85.10	2	11.751	
578.80740	35.10	2	28.490	
586.63600	91.30	2	10.953	
599.32510	90.00	3	22.222	
623.51850	125.10	3	15.987	
637.02160	38.00	2	26.316	
664.41750	38.10	3	52.493	
685.23750	92.50	2	10.811	
701.20730	66.30	3	30.166	
713.14720	38.70	2	25.840	
732.51650	37.10	3	53.908	
744.81570	88.30	3	22.650	
750.88930	101.10	5	39.565	
759.81410	80.80	2	12.376	
766.39610	98.70	3	20.263	
813.72170	85.30	3	23.447	
820.39220	94.70	4	31.679	
837.40780	84.40	3	23.697	
846.00350	88.10	4	34.052	
852.97950	108.60	4	27.624	
858.75840	108.70	3	18.399	
880.49090	88.30	4	33.975	
927.74740	92.20	2	10.846	
945.96940	37.60	2	26.596	
954.98170	39.70	2	25.189	
995.36570	124.70	4	24.058	
999.59940	112.40	4	26.690	
1011.61350	37.10	2	26.954	
1028.44500	91.40	4	32.823	
1034.63880	105.80	4	28.355	
1046.12920	92.20	3	21.692	
1054.81920	39.20	2	25.510	
1060.36280	90.10	4	33.296	
1076.78040	131.60	4	22.796	
1105.72160	83.60	3	23.923	
1118.89480	92.60	3	21.598	
1131.21380	39.90	3	50.125	
1156.44470	37.10	2	26.954	
1197.88580	146.50	5	27.304	
1210.16530	120.40	4	24.917	
1228.64730	98.20	4	30.550	
1240.40270	117.20	4	25.597	
1257.95620	142.60	5	28.050	
1281.50530	1088.30	32	28.485	
1293.15040	37.70	2	26.525	
1306.31110	96.40	4	31.120	
1325.09810	112.10	3	17.841	
1336.93570	126.50	6	39.526	
1342.26760	110.50	4	27.149	
1368.85340	39.20	2	25.510	
1375.44120	99.20	5	40.323	
1381.04350	102.90	3	19.436	
1399.91460	99.60	3	20.080	
1405.61320	113.80	3	17.575	
1411.51320	42.10	2	23.753	
1420.96690	40.00	2	25.000	
1441.09910	87.70	4	34.208	
1450.16250	75.20	2	13.298	
1472.82780	134.20	5	29.806	
1523.11310	33.50	2	29.851	
1543.00430	34.90	2	28.653	
1555.06470	84.70	4	35.419	
1578.84430	81.10	4	36.991	
1593.88860	128.20	4	23.401	
1605.89650	40.10	2	24.938	
1632.23250	97.80	4	30.675	
1639.44470	103.80	5	38.536	
1645.67560	36.60	2	27.322	
1652.30610	41.00	2	24.390	
1675.24030	130.60	7	45.942	
1714.49490	151.20	8	46.296	
1739.61450	88.10	2	11.351	
1745.88530	36.20	2	27.624	
1771.35180	115.10	4	26.064	
1815.80340	141.50	4	21.201	
1823.51880	81.40	3	24.570	
1838.58190	94.30	2	10.604	
1856.98160	95.70	2	10.449	
1881.73350	80.10	3	24.969	
1892.54030	119.30	4	25.147	
1909.10180	126.00	6	39.683	
1923.28380	126.90	7	47.281	
1936.71270	35.60	2	28.090	
1955.05550	89.70	3	22.297	
1970.56750	65.70	2	15.221	
1987.14980	76.10	3	26.281	
2000.07560	36.90	2	27.100	
2006.25690	73.80	2	13.550	
2022.75270	35.20	2	28.409	
2028.72860	113.50	6	44.053	
2043.47670	128.20	5	31.201	
2059.40650	84.10	2	11.891	
2070.00730	118.70	3	16.849	
2089.42710	89.20	2	11.211	
2100.75350	101.90	4	29.441	
2106.39860	94.30	3	21.209	
2117.93770	108.40	2	9.225	
2131.32660	105.40	4	28.463	
2149.98760	84.70	3	23.613	
2155.58970	92.30	3	21.668	
2160.70250	102.90	4	29.155	
2167.37460	106.00	3	18.868	
2177.32310	84.70	3	23.613	
2182.91240	41.40	2	24.155	
2204.87730	111.60	5	35.842	
2214.88130	65.50	2	15.267	
2235.51790	112.60	3	17.762	
2243.60430	124.30	3	16.090	
2265.29210	132.20	5	30.257	
2272.55690	85.80	3	23.310	
2299.27830	115.40	3	17.331	
2304.14140	126.40	4	23.734	
2326.01050	67.20	3	29.762	
2337.52040	36.50	2	27.397	
2344.41160	127.10	5	31.471	
2349.61460	117.00	3	17.094	
2366.64000	93.40	4	32.120	
2374.63480	115.30	5	34.692	
2387.14090	38.00	2	26.316	
2394.68350	37.60	2	26.596	
2408.82890	107.30	6	46.598	
2431.91970	61.50	2	16.260	
2438.59680	135.40	3	14.771	
2470.76380	84.80	3	23.585	
2500.43740	116.80	6	42.808	
2511.03890	94.60	5	42.283	
2535.00840	111.00	5	36.036	
2552.58050	95.80	3	20.877	
2561.06460	151.40	5	26.420	
2595.28620	77.20	3	25.907	
2613.54880	145.40	4	20.633	
2625.79510	141.80	4	21.157	
2632.60110	115.10	3	17.376	
2638.23430	73.40	2	13.624	
2653.27410	119.10	4	25.189	
2665.31050	40.10	2	24.938	
2670.82490	127.60	3	15.674	
2677.10700	40.90	2	24.450	
2681.25920	115.70	3	17.286	
2687.94480	72.10	3	27.739	
2706.72470	160.80	8	43.532	
2711.96520	116.90	4	25.663	
2716.20420	36.50	2	27.397	
2736.62860	151.40	6	33.025	
2742.80670	125.00	3	16.000	
2767.70490	162.10	12	67.859	
2779.76190	91.30	2	10.953	
2786.32690	70.70	2	14.144	
2791.47280	115.90	5	34.513	
2797.03230	44.20	2	22.624	
2804.69320	127.20	5	31.447	
2812.71740	134.10	6	37.286	
2817.01820	38.40	2	26.042	
2841.48130	86.30	2	11.587	
2853.07320	38.20	2	26.178	
2870.63870	95.50	3	20.942	
2875.42270	38.00	2	26.316	
2880.17450	48.10	2	20.790	
2885.27980	109.90	3	18.198	
2896.14480	39.80	2	25.126	
2899.76550	122.10	3	16.380	
2905.02550	102.20	3	19.569	
2909.87760	85.50	2	11.696	
2919.90260	87.10	2	11.481	
2932.40920	116.20	4	25.818	
2936.32840	100.30	5	39.880	
2941.84380	120.30	5	33.250	
2972.33060	68.60	2	14.577	
2984.66880	85.20	2	11.737	
2999.62610	125.50	4	23.904	
3002.54400	78.50	2	12.739	
3044.08970	128.00	3	15.625	
3065.32450	167.50	8	41.791	
3089.54600	142.40	3	14.045	
3093.34440	120.20	4	24.958	
3106.51860	88.90	2	11.249	
3112.96490	121.90	9	65.628	
3118.36090	172.00	6	29.070	
3144.92290	106.40	4	28.195	
3156.41090	103.80	3	19.268	
3161.03970	81.30	3	24.600	
3164.78510	82.00	3	24.390	
3172.75380	151.10	7	39.709	
3177.59820	134.20	4	22.355	
3186.04560	92.70	4	32.362	
3199.29090	137.70	5	29.049	
3214.50650	127.50	5	31.373	
3227.64640	182.40	4	16.447	
3252.83890	81.00	2	12.346	
3258.03210	133.20	3	15.015	
3273.60650	72.50	2	13.793	
3282.24230	108.70	7	55.198	
3314.35230	110.30	2	9.066	
3326.73820	98.90	3	20.222	
3335.99760	139.90	5	28.592	
3352.26040	118.50	4	25.316	
3357.76150	109.00	2	9.174	
3363.96240	116.60	4	25.729	
3376.71600	69.80	2	14.327	
3384.34060	105.80	4	28.355	
3389.58760	106.60	3	18.762	
3396.95650	132.90	3	15.049	
3424.20530	77.70	3	25.740	
3431.21800	89.20	3	22.422	
3444.78650	106.60	4	28.143	
3462.46210	63.00	2	15.873	
3478.49060	78.80	2	12.690	
3486.09300	90.80	4	33.040	
3492.30560	83.40	3	23.981	
3499.69010	193.40	5	20.683	
3506.51440	117.00	5	34.188	
3516.93130	117.80	5	33.956	
3525.29700	159.40	7	37.641	
3540.92650	127.40	5	31.397	
3556.22210	104.70	4	28.653	
3580.21730	110.10	4	27.248	
3587.30450	203.30	7	29.513	
3612.38430	87.10	3	22.962	
3617.77850	36.90	2	27.100	
3637.58320	111.30	3	17.969	

t	38	38	38	
	Duration	Count	Frequency	
[s]	[ms]	[-]	[Hz]	
184.55650	10.60	2	94.340	
419.16260	18.60	3	107.527	
570.20550	19.80	3	101.010	
685.23650	10.50	2	95.238	
820.39150	11.50	2	86.957	
965.30980	12.10	2	82.645	
1060.36200	11.90	3	168.067	
1268.09540	10.20	2	98.039	
1282.26250	331.90	2	3.013	
1342.26660	19.20	3	104.167	
1350.91790	11.90	2	84.034	
1923.28280	17.50	3	114.286	
2022.75160	17.40	3	114.943	
2214.88030	19.50	2	51.282	
2222.91770	11.90	2	84.034	
2438.59610	18.50	3	108.108	
2632.60040	12.10	2	82.645	
2896.14390	17.70	3	112.994	
2909.87680	10.80	2	92.593	
2968.14500	12.80	2	78.125	
2972.32960	19.30	2	51.813	
3072.26330	19.10	2	52.356	
3079.35970	19.80	2	50.505	
3112.96410	19.10	2	52.356	
3207.60810	19.60	3	102.041	
3214.50600	10.50	2	95.238	
3273.60570	10.70	2	93.458	
3352.25990	11.00	2	90.909	
3389.58710	12.40	2	80.645	
3419.50190	11.40	2	87.719	
3431.21750	11.10	2	90.090	
3546.18570	11.70	2	85.470	
3568.56130	10.80	3	185.185	
3580.21680	10.40	2	96.154	

t	41	41	41	
	Duration	Count	Frequency	
[s]	[ms]	[-]	[Hz]	
7.52220	807.60	6	6.191	
23.46500	831.80	8	8.415	
27.44310	1716.40	12	6.409	
34.76620	1031.00	11	9.699	
44.03200	224.00	10	40.179	
64.04180	319.70	4	9.384	
75.79660	1037.70	16	14.455	
80.64070	1266.90	15	11.051	
84.42940	1106.70	12	9.939	
94.70360	259.50	11	38.536	
102.24140	642.40	9	12.453	
115.52970	385.80	16	38.880	
118.72270	322.70	13	37.186	
142.58750	29.20	3	68.493	
157.45040	398.20	9	20.090	
174.76580	36.70	2	27.248	
198.34490	965.70	7	6.213	
204.10000	402.00	10	22.388	
218.94160	273.80	2	3.652	
222.23630	21.20	4	141.509	
243.22100	17.90	5	223.464	
264.74210	288.70	4	10.391	
269.66620	1374.40	28	19.645	
283.35610	143.60	10	62.674	
314.50870	1525.50	20	12.455	
319.48100	162.60	3	12.300	
325.25530	2539.50	10	3.544	
361.10720	15.60	3	128.205	
406.07280	207.00	6	24.155	
412.72330	68.70	6	72.780	
437.97900	509.40	9	15.705	
448.64820	411.70	10	21.861	
473.75050	75.80	7	79.156	
478.23320	1112.90	14	11.681	
497.18620	279.80	9	28.592	
577.10800	90.30	4	33.223	
584.49030	1118.90	10	8.044	
597.98060	34.80	4	86.207	
629.22600	274.80	7	21.834	
695.90020	174.30	4	17.212	
705.89560	204.90	8	34.163	
709.87910	53.40	4	56.180	
731.67930	243.60	10	36.946	
806.20760	1922.60	28	14.043	
825.55990	139.20	2	7.184	
841.52600	191.70	9	41.732	
858.36450	18.40	2	54.348	
862.60160	802.40	8	8.724	
891.69240	124.60	4	24.077	
906.77310	353.70	7	16.964	
963.01780	281.60	7	21.307	
966.62240	2745.10	21	7.286	
978.26270	18.70	2	53.476	
1019.54930	2445.50	13	4.907	
1050.00970	44.80	3	44.643	
1054.60350	317.20	5	12.610	
1061.55080	371.30	8	18.853	
1081.07710	208.10	4	14.416	
1109.16540	2217.70	20	8.567	
1113.40000	886.20	11	11.284	
1121.77420	169.70	9	47.142	
1140.74220	2062.60	21	9.696	
1162.95820	112.90	6	44.287	
1222.03100	1582.00	10	5.689	
1266.07860	481.20	8	14.547	
1270.38160	281.90	8	24.832	
1316.12710	91.20	9	87.719	
1331.84940	290.90	10	30.938	
1339.58680	300.30	8	23.310	
1352.96420	11.30	3	176.991	
1382.08590	321.30	6	15.562	
1394.70290	262.00	4	11.450	
1470.26980	267.40	11	37.397	
1473.24730	388.90	11	25.714	
1570.71360	20.00	2	50.000	
1603.76060	19.50	2	51.282	
1607.28120	24.70	3	80.972	
1648.27310	62.40	6	80.128	
1658.45140	292.20	5	13.689	
1673.78040	78.00	2	12.821	
1690.57600	18.80	2	53.191	
1695.88590	239.60	3	8.347	
1738.33870	307.80	7	19.493	
1803.66450	260.20	11	38.432	
1808.37910	31.80	3	62.893	
1823.92680	385.30	2	2.595	
1854.51390	432.90	14	30.030	
1919.44520	816.30	9	9.800	
1928.67350	395.50	12	27.813	
1952.75960	39.80	2	25.126	
1956.56850	288.50	6	17.331	
2004.66090	299.10	12	36.777	
2033.33190	543.60	12	20.235	
2051.31970	189.40	5	21.119	
2063.67560	314.50	11	31.797	
2096.62350	117.10	5	34.159	
2236.14740	57.70	5	69.324	
2244.47470	79.90	7	75.094	
2251.72300	157.80	7	38.023	
2282.17450	380.10	9	21.047	
2317.98190	200.90	3	9.955	
2335.94060	78.70	3	25.413	
2340.79740	662.70	12	16.599	
2363.57000	289.40	4	10.366	
2411.29300	122.80	2	8.143	
2615.37110	919.70	8	7.611	
2680.01790	1186.10	13	10.117	
2719.03950	63.90	3	31.299	
2731.90660	452.60	10	19.885	
2756.20970	1625.80	8	4.306	
2771.33410	1153.70	17	13.868	
2774.79060	269.00	14	48.327	
2780.18810	25.00	4	120.000	
2798.33160	149.20	5	26.810	
2812.27770	333.10	12	33.023	
2840.54480	13.10	4	229.008	
2864.25700	157.30	5	25.429	
2900.30340	489.60	5	8.170	
2937.11150	154.00	3	12.987	
2941.38030	23.90	3	83.682	
3091.35950	234.40	8	29.863	
3145.26190	21.70	2	46.083	
3163.36950	359.90	6	13.893	
3261.70580	323.40	12	34.014	
3379.12410	22.90	3	87.336	
3406.56720	249.80	16	60.048	
3442.52050	157.20	7	38.168	
3445.44230	1134.20	21	17.634	
3479.83180	55.80	4	53.763	
3527.76090	67.50	5	59.259	
3628.20740	237.70	6	21.035	

t	42	42	42	
	Duration	Count	Frequency	
[s]	[ms]	[-]	[Hz]	
23.54670	82.30	3	24.301	

t	43	43	43	
	Duration	Count	Frequency	
[s]	[ms]	[-]	[Hz]	
7.62350	165.90	8	42.194	
23.59260	186.90	8	37.453	
34.76730	304.40	4	9.855	
44.13100	235.30	10	38.249	
64.14170	299.00	12	36.789	
85.27110	185.20	9	43.197	
102.25960	474.30	7	12.650	
115.64190	253.80	6	19.701	
118.82260	184.70	8	37.899	
157.50390	323.70	6	15.446	
204.42390	86.20	4	34.803	
269.93990	313.00	6	15.974	
314.63420	269.50	5	14.842	
405.94630	272.70	5	14.668	
448.63880	290.60	8	24.088	
473.80900	13.60	4	220.588	
584.51760	287.50	7	20.870	
706.13370	37.90	3	52.770	
731.69110	15.10	2	66.225	
906.88820	167.20	5	23.923	
966.78670	17.00	2	58.824	
969.26550	108.80	4	27.574	
1021.07010	37.00	3	54.054	
1141.61520	696.10	13	17.239	
1223.43670	86.70	9	92.272	
1266.08550	345.50	7	17.366	
1332.08180	13.30	3	150.376	
1658.55590	39.80	5	100.503	
1696.13090	37.60	2	26.596	
1928.82570	27.70	2	36.101	
2282.27160	639.60	6	7.817	
2615.46970	280.00	14	46.429	
2680.29460	202.00	9	39.604	

t	44	44	44	
	Duration	Count	Frequency	
[s]	[ms]	[-]	[Hz]	
30.72660	194.90	2	5.131	
49.57990	159.80	2	6.258	
63.48980	160.10	4	18.738	
85.19560	159.40	2	6.274	
100.78810	161.00	2	6.211	
119.52810	504.20	5	7.933	
129.56550	373.70	3	5.352	
154.44210	308.00	7	19.481	
157.62180	128.20	2	7.800	
162.69200	191.20	3	10.460	
184.54320	169.10	2	5.914	
211.78410	416.70	3	4.800	
227.31860	373.10	13	32.163	
248.24940	478.20	3	4.182	
261.35810	306.30	3	6.530	
282.75100	212.70	2	4.701	
291.18750	319.70	3	6.256	
315.37710	479.30	4	6.259	
339.31650	174.60	2	5.727	
347.99730	399.10	3	5.011	
362.31040	229.50	2	4.357	
369.90410	202.10	2	4.948	
376.90570	334.00	3	5.988	
388.19610	288.70	7	20.783	
403.47870	166.90	2	5.992	
419.15420	197.40	2	5.066	
428.16990	418.10	3	4.784	
438.40580	353.90	5	11.303	
449.88140	373.80	5	10.701	
463.43320	371.00	3	5.391	
469.66710	310.50	2	3.221	
478.87170	189.70	2	5.271	
485.23850	221.50	2	4.515	
492.01700	352.90	3	5.667	
502.11660	135.10	4	22.206	
515.37800	170.30	2	5.872	
526.64570	350.30	3	5.709	
538.44100	170.90	2	5.851	
550.13630	260.10	2	3.845	
560.57500	203.90	2	4.904	
570.19540	155.90	2	6.414	
578.80060	149.90	2	6.671	
586.62990	209.70	2	4.769	
599.31850	201.20	2	4.970	
607.15960	361.50	3	5.533	
616.31140	386.90	5	10.339	
623.51180	429.50	3	4.657	
630.29500	140.40	2	7.123	
637.01400	136.20	2	7.342	
646.40260	181.90	2	5.498	
652.03680	173.00	2	5.780	
664.41020	159.50	2	6.270	
685.22700	169.80	2	5.889	
701.19340	204.00	3	9.804	
713.13850	150.80	2	6.631	
732.50720	199.30	2	5.018	
744.80880	175.50	2	5.698	
750.87620	172.70	2	5.790	
759.80710	205.70	2	4.861	
766.38840	363.50	3	5.502	
773.51000	188.70	2	5.299	
781.89880	537.40	13	22.330	
797.91950	318.10	7	18.862	
813.71290	183.40	2	5.453	
820.38130	185.70	3	10.770	
827.60390	148.50	2	6.734	
837.39910	222.90	2	4.486	
845.98840	168.70	2	5.928	
852.97060	203.70	2	4.909	
858.74680	190.00	2	5.263	
866.95110	349.20	3	5.727	
875.83890	167.30	3	11.955	
880.48130	169.00	2	5.917	
885.63110	173.80	2	5.754	
898.27070	159.00	3	12.579	
904.66700	174.70	2	5.724	
910.51000	119.80	2	8.347	
921.71330	162.30	2	6.161	
927.74100	393.40	6	12.710	
945.96270	406.20	3	4.924	
954.97390	140.50	2	7.117	
965.30070	162.40	2	6.158	
972.60110	329.10	4	9.116	
983.31610	352.30	3	5.677	
995.35970	219.40	2	4.558	
1011.60600	153.90	2	6.498	
1028.43930	252.90	3	7.908	
1034.63330	342.80	2	2.917	
1046.11510	176.70	2	5.659	
1054.81120	158.40	2	6.313	
1060.35130	376.70	3	5.309	
1067.11150	136.10	2	7.348	
1076.77450	270.30	2	3.700	
1091.59180	174.60	3	11.455	
1105.70540	172.80	2	5.787	
1112.76600	243.50	3	8.214	
1118.88730	429.30	3	4.659	
1131.20690	186.00	2	5.376	
1137.21750	192.80	4	15.560	
1146.69090	406.30	4	7.384	
1150.51890	357.10	7	16.802	
1156.43880	131.80	2	7.587	
1164.04200	209.50	2	4.773	
1175.92100	146.30	2	6.835	
1197.88030	247.00	2	4.049	
1210.16050	265.80	2	3.762	
1220.71920	204.60	2	4.888	
1228.64180	206.60	2	4.840	
1240.39570	374.40	3	5.342	
1250.70040	262.20	3	7.628	
1257.95110	234.80	2	4.259	
1268.08540	141.20	2	7.082	
1281.49860	791.50	5	5.054	
1293.14070	150.50	2	6.645	
1306.30040	206.00	2	4.854	
1319.79640	155.30	2	6.439	
1336.93000	266.80	3	7.496	
1342.25670	368.50	3	5.427	
1350.90630	188.40	2	5.308	
1359.70440	246.60	2	4.055	
1368.84460	175.60	2	5.695	
1375.42790	185.80	2	5.382	
1381.03540	205.90	2	4.857	
1389.90600	373.20	2	2.680	
1399.90860	190.60	2	5.247	
1405.60670	256.30	2	3.902	
1411.50430	145.90	2	6.854	
1420.95920	161.30	2	6.200	
1428.57320	160.90	2	6.215	
1433.89010	319.40	3	6.262	
1441.09220	186.10	2	5.373	
1450.15110	209.10	2	4.782	
1458.04000	359.70	6	13.900	
1472.82110	216.10	2	4.627	
1483.38260	166.80	4	17.986	
1493.90130	226.50	4	13.245	
1503.31310	177.20	2	5.643	
1508.18110	268.70	5	14.886	
1523.10200	166.40	2	6.010	
1532.75380	382.00	4	7.853	
1542.99640	381.30	4	7.868	
1547.39690	244.20	6	20.475	
1555.05840	261.80	2	3.820	
1566.70610	276.70	4	10.842	
1578.83530	391.90	3	5.103	
1593.88200	325.90	3	6.137	
1598.12070	325.40	3	6.146	
1605.88660	155.00	2	6.452	
1614.64250	486.50	17	32.888	
1625.71620	158.50	2	6.309	
1632.22590	223.20	2	4.480	
1639.43780	189.00	2	5.291	
1645.66690	127.30	2	7.855	
1652.29690	146.10	2	6.845	
1675.23480	274.20	3	7.294	
1690.54580	163.70	2	6.109	
1705.86710	216.90	4	13.831	
1714.49000	414.40	4	7.239	
1719.16110	246.60	5	16.221	
1739.60990	227.00	2	4.405	
1745.87590	171.90	2	5.817	
1759.13020	186.40	2	5.365	
1771.34570	192.90	3	10.368	
1781.55180	200.40	4	14.970	
1792.67520	423.80	7	14.158	
1801.48770	204.10	2	4.900	
1807.14440	366.40	3	5.459	
1815.79760	418.90	3	4.774	
1823.50990	155.30	2	6.439	
1838.57440	431.00	4	6.961	
1846.79260	161.90	2	6.177	
1856.97650	269.50	2	3.711	
1871.35110	151.50	2	6.601	
1875.28000	124.50	2	8.032	
1881.72540	192.50	2	5.195	
1892.52960	187.80	2	5.325	
1897.92890	150.80	2	6.631	
1909.09350	201.70	2	4.958	
1923.27360	246.20	3	8.123	
1932.56950	295.30	4	10.159	
1936.70430	157.70	2	6.341	
1955.04690	411.30	4	7.294	
1965.02680	201.50	2	4.963	
1970.56200	196.60	2	5.086	
1981.16690	177.60	2	5.631	
1987.14100	201.50	2	4.963	
1993.59730	286.40	3	6.983	
2000.06740	172.20	2	5.807	
2006.24490	158.30	2	6.317	
2013.36750	181.50	2	5.510	
2022.74100	187.10	2	5.345	
2028.72240	226.30	2	4.419	
2035.66070	274.50	4	10.929	
2043.46950	209.50	2	4.773	
2054.20500	295.20	6	16.938	
2059.40070	235.40	2	4.248	
2065.54730	327.00	3	6.116	
2069.99950	213.10	2	4.693	
2083.35790	352.60	3	5.672	
2089.41830	178.00	2	5.618	
2095.33540	291.10	6	17.176	
2100.74320	211.90	2	4.719	
2106.39030	197.50	2	5.063	
2117.93110	191.40	2	5.225	
2131.31870	254.60	3	7.855	
2137.96800	386.50	8	18.111	
2142.80090	394.40	9	20.284	
2149.97910	173.00	2	5.780	
2155.58330	403.40	3	4.958	
2160.69440	214.80	2	4.655	
2167.36890	225.20	2	4.440	
2171.90460	149.40	2	6.693	
2177.31640	209.50	2	4.773	
2182.90530	229.20	2	4.363	
2190.51830	227.00	2	4.405	
2197.05400	389.90	2	2.565	
2204.86890	397.70	3	5.029	
2211.18890	255.20	3	7.837	
2214.87120	166.30	2	6.013	
2222.90630	137.70	2	7.262	
2235.51130	217.90	2	4.589	
2243.59650	210.90	2	4.742	
2250.13820	406.70	4	7.376	
2256.16690	311.70	5	12.833	
2260.78350	157.80	2	6.337	
2265.28630	289.40	3	6.911	
2272.54920	182.40	2	5.482	
2279.24840	153.70	2	6.506	
2283.77570	389.70	5	10.264	
2295.02600	237.20	2	4.216	
2304.13310	445.50	5	8.979	
2313.42230	254.10	7	23.613	
2325.99750	192.30	2	5.200	
2332.88510	447.40	7	13.411	
2337.51400	146.60	3	13.643	
2344.40170	224.00	2	4.464	
2349.60630	251.10	2	3.982	
2352.47370	177.20	2	5.643	
2362.18930	429.00	12	25.641	
2366.62990	202.30	2	4.943	
2374.62720	433.00	4	6.928	
2380.03260	178.10	2	5.615	
2387.12930	161.10	2	6.207	
2394.67440	340.80	4	8.803	
2402.74220	174.70	2	5.724	
2408.82080	192.30	2	5.200	
2412.69370	156.00	2	6.410	
2421.53060	222.00	2	4.505	
2427.79010	126.90	2	7.880	
2431.91080	211.00	2	4.739	
2438.58880	361.30	3	5.536	
2445.00370	483.60	9	16.543	
2451.59060	355.80	9	22.485	
2456.18410	209.70	2	4.769	
2463.48410	224.90	4	13.339	
2470.75220	201.90	2	4.953	
2482.78120	172.40	2	5.800	
2489.37810	138.00	2	7.246	
2495.96860	172.60	2	5.794	
2500.43140	362.70	3	5.514	
2511.02750	167.60	2	5.967	
2524.29770	165.40	3	12.092	
2528.98200	151.10	2	6.618	
2535.00140	213.90	4	14.025	
2547.97850	183.80	2	5.441	
2552.57270	388.00	4	7.732	
2561.05860	242.20	2	4.129	
2565.93390	187.20	3	10.684	
2574.99990	179.40	2	5.574	
2583.52800	139.00	2	7.194	
2590.11450	147.30	2	6.789	
2595.27250	154.30	2	6.481	
2601.36300	180.70	2	5.534	
2606.75360	473.10	4	6.341	
2613.54160	285.60	4	10.504	
2619.53520	153.00	3	13.072	
2625.79030	342.00	3	5.848	
2632.58990	203.60	2	4.912	
2638.22590	224.70	2	4.450	
2646.09330	271.80	3	7.358	
2653.26650	413.20	3	4.840	
2659.26910	248.10	3	8.061	
2665.30000	201.50	2	4.963	
2670.81780	231.30	2	4.323	
2677.09960	153.30	2	6.523	
2681.25330	236.40	2	4.230	
2687.92810	222.60	2	4.492	
2692.87480	222.20	4	13.501	
2699.36590	161.30	2	6.200	
2711.95760	229.20	3	8.726	
2716.19660	199.60	2	5.010	
2726.30040	175.40	2	5.701	
2736.62070	224.10	3	8.925	
2742.79870	199.10	2	5.023	
2747.61050	143.10	3	13.976	
2754.37860	164.80	2	6.068	
2759.66550	345.70	3	5.785	
2767.69930	270.30	2	3.700	
2773.24430	171.30	3	11.675	
2779.75270	171.50	2	5.831	
2786.31710	204.00	2	4.902	
2791.46700	268.20	3	7.457	
2804.68720	305.80	2	3.270	
2812.71210	322.90	4	9.291	
2817.01230	359.20	4	8.352	
2827.31800	331.10	2	3.020	
2831.03320	114.00	2	8.772	
2837.51020	178.70	2	5.596	
2841.47480	375.50	5	10.652	
2847.66090	479.30	2	2.086	
2853.06620	194.70	3	10.272	
2859.26250	177.40	2	5.637	
2870.62690	188.40	3	10.616	
2875.41300	148.50	2	6.734	
2880.16800	149.30	2	6.698	
2885.26810	355.00	4	8.451	
2889.27890	404.20	2	2.474	
2896.13430	166.40	2	6.010	
2899.75860	257.90	2	3.877	
2905.01830	399.10	3	5.011	
2909.86480	160.70	2	6.223	
2914.65810	135.90	2	7.358	
2919.88260	199.90	2	5.003	
2927.02800	135.00	2	7.407	
2932.40370	349.90	3	5.716	
2936.31720	210.30	3	9.510	
2941.83730	266.50	4	11.257	
2949.81990	195.20	3	10.246	
2968.13660	187.10	2	5.345	
2972.32030	228.30	2	4.380	
2977.60300	160.10	2	6.246	
2984.66000	370.70	4	8.093	
2993.81860	306.30	4	9.794	
2999.61870	217.20	2	4.604	
3002.53300	383.90	5	10.419	
3009.95860	436.10	5	9.172	
3014.79090	281.70	2	3.550	
3024.96600	309.20	4	9.702	
3037.63220	197.00	2	5.076	
3044.08380	295.70	3	6.764	
3048.65340	187.40	4	16.009	
3052.37480	172.40	2	5.800	
3058.51160	293.60	3	6.812	
3065.32030	380.20	2	2.630	
3068.88750	190.20	2	5.258	
3072.25180	155.50	2	6.431	
3079.35040	313.90	3	6.371	
3083.22930	286.80	9	27.894	
3089.54030	255.20	2	3.918	
3093.33620	199.30	2	5.018	
3102.05350	191.90	4	15.633	
3106.51310	312.50	2	3.200	
3112.95630	374.60	6	13.348	
3118.35460	291.10	2	3.435	
3123.37050	128.30	2	7.794	
3144.91560	216.80	2	4.613	
3149.43110	143.90	2	6.949	
3156.40290	165.50	2	6.042	
3161.03300	199.80	2	5.005	
3164.77850	212.90	2	4.697	
3172.75030	299.60	3	6.676	
3177.59050	275.20	2	3.634	
3186.03860	216.80	2	4.613	
3192.85210	178.50	2	5.602	
3207.59780	171.40	2	5.834	
3214.49900	212.50	2	4.706	
3227.64120	324.50	2	3.082	
3252.82950	219.90	2	4.548	
3258.02490	276.20	2	3.621	
3268.40540	375.90	3	5.321	
3273.59870	245.10	2	4.080	
3277.32210	343.00	3	5.831	
3282.23280	195.60	2	5.112	
3287.13850	260.10	4	11.534	
3292.13800	212.60	4	14.111	
3297.57470	355.60	4	8.436	
3304.55990	250.40	4	11.981	
3314.34490	236.30	3	8.464	
3318.92750	378.40	3	5.285	
3326.72450	167.90	2	5.956	
3330.62070	316.60	16	47.378	
3335.99240	305.60	3	6.545	
3343.63200	233.30	2	4.286	
3352.25070	377.30	3	5.301	
3363.95730	211.70	2	4.724	
3371.43360	494.20	4	6.070	
3376.71050	255.60	2	3.912	
3379.96800	307.90	2	3.248	
3384.33000	260.00	2	3.846	
3389.57280	201.00	3	9.950	
3396.94950	340.40	2	2.938	
3404.36690	181.60	2	5.507	
3413.50070	331.40	2	3.018	
3419.49210	150.70	2	6.636	
3424.19170	192.60	2	5.192	
3431.20920	213.30	2	4.688	
3444.78020	451.30	4	6.647	
3459.24200	181.50	2	5.510	
3462.45280	364.50	3	5.487	
3467.88490	250.10	3	7.997	
3471.17020	146.40	2	6.831	
3478.48370	234.30	2	4.268	
3486.08600	251.30	2	3.979	
3492.29470	201.20	2	4.970	
3499.68440	346.90	3	5.765	
3506.50610	198.40	2	5.040	
3510.46630	139.00	2	7.194	
3516.92130	214.60	2	4.660	
3525.29080	389.90	3	5.130	
3540.92200	301.50	3	6.633	
3546.17550	185.20	2	5.400	
3550.58080	177.30	4	16.920	
3556.21530	188.50	2	5.305	
3568.55030	134.00	2	7.463	
3572.84050	189.20	2	5.285	
3580.20970	240.30	2	4.161	
3587.29970	334.30	2	2.991	
3592.75760	238.30	4	12.589	
3599.04260	295.50	2	3.384	
3607.36570	172.00	3	11.628	
3612.37670	289.30	2	3.457	
3617.76750	208.70	2	4.792	
3622.43710	204.50	2	4.890	
3637.57560	189.60	2	5.274	

t	45	45	45	
	Duration	Count	Frequency	
[s]	[ms]	[-]	[Hz]	
30.72260	218.60	2	4.575	
49.57180	196.50	2	5.089	
63.48740	190.50	3	10.499	
85.18450	196.00	2	5.102	
100.76760	201.90	2	4.953	
119.52580	226.10	2	4.423	
129.56370	201.70	2	4.958	
154.43930	566.10	3	3.533	
157.57550	198.30	2	5.043	
162.68920	202.60	2	4.936	
184.53590	217.40	2	4.600	
211.78170	236.00	2	4.237	
227.31590	248.00	3	8.065	
248.24720	226.30	2	4.419	
261.35440	567.50	4	5.286	
282.74750	242.10	2	4.131	
291.18290	512.80	4	5.850	
315.37450	243.30	2	4.110	
339.31300	480.50	5	8.325	
347.99490	209.30	2	4.778	
362.30860	243.50	2	4.107	
369.90190	215.90	2	4.632	
376.90320	541.10	4	5.544	
388.19330	228.20	2	4.382	
403.47590	204.30	2	4.895	
419.15190	211.70	2	4.724	
428.16630	471.20	3	4.244	
438.40310	254.20	2	3.934	
449.87870	242.40	2	4.125	
463.43030	226.40	2	4.417	
469.66450	253.80	2	3.940	
478.86840	451.90	3	4.426	
485.23560	218.60	2	4.575	
492.01580	191.40	2	5.225	
502.11360	406.20	6	12.309	
515.37540	198.30	2	5.043	
526.64300	471.60	3	4.241	
538.43850	198.30	2	5.043	
550.13380	248.30	2	4.027	
560.57300	499.00	4	6.012	
570.19140	181.40	2	5.513	
578.79880	178.90	2	5.590	
586.62800	215.90	2	4.632	
599.31640	215.30	2	4.645	
607.15700	184.50	2	5.420	
616.31000	266.90	3	7.493	
623.50910	213.30	2	4.688	
630.29030	168.50	3	11.869	
637.01250	159.50	2	6.270	
646.40110	201.50	2	4.963	
652.03240	399.70	4	7.506	
664.40870	190.70	2	5.244	
685.22450	466.60	3	4.286	
691.94470	249.30	4	12.034	
701.18870	222.60	4	13.477	
713.13550	382.80	4	7.837	
732.50390	463.00	4	6.479	
744.80610	444.20	4	6.754	
750.87000	196.70	2	5.084	
759.80330	221.70	3	9.021	
766.38600	191.30	2	5.227	
773.50720	208.80	2	4.789	
781.89670	275.90	5	14.498	
797.91740	242.90	3	8.234	
807.89480	291.90	2	3.426	
813.70760	202.60	2	4.936	
820.37520	200.30	2	4.993	
827.60070	384.00	5	10.417	
837.39570	226.80	2	4.409	
845.98280	192.40	2	5.198	
852.96750	211.50	2	4.728	
858.74280	203.70	2	4.909	
866.94880	439.80	3	4.548	
875.83690	194.70	2	5.136	
880.47770	186.10	2	5.373	
885.62890	185.50	2	5.391	
898.26910	252.60	3	7.918	
904.66430	196.00	2	5.102	
910.50600	139.50	2	7.168	
921.71030	187.60	2	5.330	
927.73860	226.50	2	4.415	
933.69580	237.30	2	4.214	
945.95920	209.50	2	4.773	
954.97040	597.40	5	6.696	
965.29800	182.40	2	5.482	
972.59940	503.20	4	5.962	
983.31250	183.50	3	10.899	
995.35740	227.60	2	4.394	
999.59430	237.50	2	4.211	
1011.60440	427.50	5	9.357	
1016.58350	485.50	3	4.119	
1028.43770	240.50	2	4.158	
1034.63060	288.50	2	3.466	
1046.11160	208.20	5	19.212	
1054.80890	451.10	3	4.434	
1060.33840	464.30	3	4.308	
1067.10880	218.10	4	13.755	
1076.77210	244.10	2	4.097	
1085.57850	270.70	2	3.694	
1091.58190	453.20	3	4.413	
1105.70200	190.50	2	5.249	
1112.76400	230.60	2	4.337	
1118.88430	209.10	2	4.782	
1131.20410	215.20	3	9.294	
1137.21440	430.30	3	4.648	
1146.68800	218.20	3	9.166	
1150.51560	243.20	2	4.112	
1156.43640	152.50	2	6.557	
1164.04010	214.20	2	4.669	
1175.91910	178.10	2	5.615	
1185.40000	539.60	3	3.706	
1197.87840	243.40	2	4.108	
1204.34180	354.80	5	11.274	
1210.15880	251.80	2	3.971	
1220.71530	224.10	3	8.925	
1228.63990	214.60	2	4.660	
1240.39310	259.60	2	3.852	
1250.69800	224.00	2	4.464	
1257.94780	238.10	2	4.200	
1268.08030	167.30	2	5.977	
1281.49600	870.30	7	6.894	
1293.13810	169.10	2	5.914	
1306.29450	228.50	2	4.376	
1313.63700	291.70	3	6.856	
1319.79390	312.80	3	6.394	
1325.09010	282.10	3	7.090	
1336.92690	516.30	4	5.811	
1342.25300	223.60	2	4.472	
1350.90190	212.40	2	4.708	
1359.70220	244.40	2	4.092	
1368.84040	204.10	4	14.699	
1375.42490	201.80	2	4.955	
1381.03140	213.90	2	4.675	
1389.90190	277.70	4	10.803	
1399.90650	207.80	2	4.812	
1405.60480	450.60	4	6.658	
1411.49780	181.20	2	5.519	
1420.95710	183.60	2	5.447	
1428.57070	196.30	3	10.188	
1433.88670	434.60	3	4.602	
1441.08820	198.30	2	5.043	
1450.14620	218.60	3	9.149	
1458.03750	203.50	2	4.914	
1472.81880	221.90	2	4.507	
1483.38050	211.50	2	4.728	
1493.89930	214.20	2	4.669	
1503.30900	504.80	4	5.943	
1508.17890	212.20	2	4.713	
1523.09940	188.90	2	5.294	
1532.75090	497.10	4	6.035	
1542.99260	200.00	2	5.000	
1547.39420	202.80	2	4.931	
1555.05570	242.00	2	4.132	
1566.70310	213.80	3	9.355	
1578.83230	199.40	2	5.015	
1593.87930	250.00	2	4.000	
1598.11720	236.30	2	4.232	
1605.88420	175.70	2	5.692	
1614.64000	238.40	2	4.195	
1625.71270	189.80	2	5.269	
1632.22360	217.40	2	4.600	
1639.43530	196.20	2	5.097	
1645.66240	158.90	2	6.293	
1652.29200	172.30	2	5.804	
1675.23210	241.80	2	4.136	
1683.22970	259.50	3	7.707	
1690.54050	184.10	2	5.432	
1705.86430	295.90	2	3.380	
1714.48790	245.90	2	4.067	
1719.15790	444.00	3	4.505	
1730.00680	301.20	4	9.960	
1739.60820	227.50	2	4.396	
1745.87290	191.50	2	5.222	
1759.12750	452.10	3	4.424	
1771.34350	212.50	2	4.706	
1781.54900	300.20	8	23.318	
1792.67260	226.40	2	4.417	
1801.48490	475.50	3	4.206	
1807.14280	264.90	4	11.325	
1815.79470	243.70	2	4.103	
1823.50620	173.60	2	5.760	
1838.57180	206.40	2	4.845	
1846.79110	187.50	3	10.667	
1856.97430	492.60	3	4.060	
1864.87600	287.60	2	3.477	
1871.34610	417.90	3	4.786	
1875.27630	509.00	8	13.752	
1881.72280	204.70	2	4.885	
1892.52700	198.20	2	5.045	
1897.92690	176.10	2	5.679	
1909.09040	211.00	2	4.739	
1923.26740	245.40	2	4.075	
1932.56690	257.20	2	3.888	
1936.70020	178.00	2	5.618	
1943.92240	508.70	3	3.932	
1955.04220	215.60	2	4.638	
1965.02310	491.50	3	4.069	
1970.56040	201.70	2	4.958	
1981.16240	484.00	3	4.132	
1987.13730	209.40	2	4.776	
1993.59460	181.20	2	5.519	
2000.06340	187.20	2	5.342	
2006.23790	178.80	2	5.593	
2013.36420	475.80	5	8.407	
2022.73670	211.00	3	9.479	
2028.72000	221.30	2	4.519	
2035.65640	185.90	4	16.138	
2043.46580	217.40	2	4.600	
2054.20270	244.60	2	4.088	
2059.39830	559.50	4	5.362	
2065.54440	196.90	2	5.079	
2069.99550	210.80	2	4.744	
2083.35570	195.40	2	5.118	
2089.41470	198.80	2	5.030	
2095.33360	208.10	2	4.805	
2100.73870	215.40	2	4.643	
2106.38600	206.40	2	4.845	
2117.92850	428.80	3	4.664	
2131.31540	534.20	4	5.616	
2137.96640	213.20	3	9.381	
2142.79880	212.50	2	4.706	
2149.97480	197.60	2	5.061	
2155.58040	230.40	2	4.340	
2160.69010	213.60	3	9.363	
2167.36680	481.00	3	4.158	
2171.89950	178.10	2	5.615	
2177.31420	492.60	3	4.060	
2182.90250	225.30	2	4.439	
2190.51610	217.50	2	4.598	
2197.05200	277.40	2	3.605	
2204.86520	201.70	2	4.958	
2211.18670	499.60	3	4.003	
2214.86750	412.90	3	4.844	
2222.90390	172.70	4	17.371	
2229.16560	348.70	5	11.471	
2235.50950	217.30	2	4.602	
2243.59310	215.90	2	4.632	
2250.13610	245.30	2	4.077	
2256.16450	188.10	2	5.316	
2260.77850	177.10	2	5.647	
2265.28330	226.60	2	4.413	
2272.54600	195.20	2	5.123	
2279.24570	375.90	3	5.321	
2283.77200	236.00	2	4.237	
2295.02360	554.30	3	3.608	
2299.26950	508.00	7	11.811	
2304.13020	226.50	2	4.415	
2313.41940	232.40	2	4.303	
2320.02950	252.40	2	3.962	
2325.99370	199.40	2	5.015	
2332.88280	268.50	3	7.449	
2337.51180	169.70	3	11.786	
2344.39840	226.70	2	4.411	
2349.60350	226.60	2	4.413	
2352.46320	190.50	2	5.249	
2362.18680	267.30	4	11.223	
2366.62740	205.40	2	4.869	
2374.62480	212.70	2	4.701	
2380.02990	188.80	2	5.297	
2387.12420	187.30	2	5.339	
2394.67060	186.80	2	5.353	
2402.73990	197.70	3	10.116	
2408.81790	205.30	2	4.871	
2412.68730	179.30	2	5.577	
2421.52700	228.80	2	4.371	
2427.78660	153.50	2	6.515	
2431.90740	212.20	2	4.713	
2438.58460	218.20	2	4.583	
2445.00090	253.30	2	3.948	
2451.58860	219.80	3	9.099	
2456.18030	219.80	3	9.099	
2463.48150	494.00	3	4.049	
2470.74870	207.70	2	4.815	
2477.10440	312.10	2	3.204	
2482.77880	476.50	3	4.197	
2489.37510	182.90	2	5.467	
2495.96500	196.80	2	5.081	
2500.42880	230.40	2	4.340	
2506.53170	304.50	3	6.568	
2511.02310	178.00	2	5.618	
2524.29320	204.10	2	4.900	
2528.97540	168.90	2	5.921	
2534.99970	216.40	2	4.621	
2543.95070	286.90	5	13.942	
2547.97540	404.90	3	4.939	
2552.57000	214.90	2	4.653	
2561.05600	234.50	2	4.264	
2565.93110	196.00	2	5.102	
2574.99670	551.40	4	5.441	
2583.52570	567.60	10	15.856	
2590.11230	173.80	3	11.507	
2595.23320	211.50	3	9.456	
2601.36020	185.60	2	5.388	
2606.75140	332.50	3	6.015	
2613.53920	248.00	2	4.032	
2619.53320	250.70	7	23.933	
2625.78850	259.60	2	3.852	
2632.58550	209.00	2	4.785	
2638.22250	222.30	2	4.498	
2646.09150	251.70	3	7.946	
2653.26360	212.30	3	9.421	
2659.26620	538.70	13	22.276	
2665.29600	450.10	3	4.443	
2670.81330	487.30	3	4.104	
2677.09500	416.90	3	4.797	
2681.25100	219.60	2	4.554	
2687.91010	240.30	2	4.161	
2692.87030	508.00	7	11.811	
2699.35740	183.50	2	5.450	
2706.71240	305.10	4	9.833	
2711.95460	219.70	2	4.552	
2716.19330	203.90	2	4.904	
2722.20600	509.30	8	13.744	
2726.29760	182.60	2	5.476	
2736.61780	227.00	2	4.405	
2742.79520	205.30	2	4.871	
2747.60440	168.60	2	5.931	
2754.37480	182.80	2	5.470	
2759.66210	207.90	2	4.810	
2767.69630	530.30	3	3.771	
2773.24180	386.70	4	7.758	
2779.74950	190.10	2	5.260	
2786.31400	208.70	2	4.792	
2791.46400	234.50	2	4.264	
2797.02470	534.00	6	9.363	
2804.68470	255.10	2	3.920	
2812.71010	273.90	3	7.302	
2817.01000	206.00	2	4.854	
2827.31610	309.10	2	3.235	
2831.02930	143.40	2	6.974	
2837.50660	200.00	2	5.000	
2841.47050	255.80	2	3.909	
2847.65870	304.20	2	3.287	
2853.06280	433.20	3	4.617	
2859.25940	198.60	2	5.035	
2870.62080	443.40	5	9.021	
2875.41020	525.40	5	7.613	
2880.16490	176.20	2	5.675	
2885.26360	415.80	3	4.810	
2889.27650	317.60	5	12.594	
2896.12810	190.00	2	5.263	
2899.75500	240.10	3	8.330	
2905.01550	244.20	2	4.095	
2909.85840	177.20	2	5.643	
2914.65300	160.00	2	6.250	
2919.87370	210.70	2	4.746	
2927.02540	411.50	4	7.290	
2932.40130	240.60	2	4.156	
2936.31150	208.70	2	4.792	
2941.83500	436.10	4	6.879	
2949.81780	430.40	5	9.294	
2955.48330	308.60	3	6.481	
2962.67390	294.80	3	6.784	
2968.13260	433.90	6	11.523	
2972.31590	434.60	3	4.602	
2977.59860	174.90	2	5.718	
2984.65660	240.70	3	8.309	
2993.81470	268.70	3	7.443	
2999.61590	218.40	2	4.579	
3002.52410	191.40	2	5.225	
3005.65970	212.80	2	4.699	
3009.95560	252.40	2	3.962	
3014.78600	497.20	4	6.034	
3024.96340	432.00	3	4.630	
3031.64600	274.60	2	3.642	
3037.62970	208.10	2	4.805	
3044.08180	266.40	2	3.754	
3048.64770	500.60	11	19.976	
3052.37070	412.00	3	4.854	
3058.50860	236.60	2	4.227	
3065.31840	321.10	2	3.114	
3068.87910	205.40	2	4.869	
3072.24700	173.60	2	5.760	
3079.34680	370.30	3	5.401	
3083.22470	188.30	3	10.621	
3089.53690	242.20	2	4.129	
3093.33320	201.20	2	4.970	
3102.05040	535.10	4	5.606	
3106.50940	257.90	2	3.877	
3112.95290	218.70	2	4.572	
3118.35230	268.70	2	3.722	
3123.36740	451.80	7	13.280	
3131.86980	574.30	3	3.483	
3137.18930	444.60	4	6.748	
3144.91210	225.10	2	4.442	
3149.42700	468.70	3	4.267	
3156.40030	184.10	2	5.432	
3161.02940	217.20	2	4.604	
3164.77540	213.10	2	4.693	
3172.74820	263.70	2	3.792	
3177.58690	259.00	2	3.861	
3183.00450	334.90	3	5.972	
3186.03580	211.60	2	4.726	
3192.84830	205.30	2	4.871	
3199.28340	248.90	2	4.018	
3207.59280	373.30	3	5.358	
3214.49650	220.70	2	4.531	
3221.41140	369.20	3	5.417	
3227.63820	292.20	2	3.422	
3234.03270	270.00	2	3.704	
3239.35910	399.00	4	7.519	
3244.56490	470.20	5	8.507	
3252.82700	231.10	3	8.654	
3258.02230	254.90	4	11.769	
3263.66270	247.20	2	4.045	
3268.40140	217.40	2	4.600	
3273.59550	243.80	2	4.102	
3277.31940	286.70	3	6.976	
3282.22940	419.90	4	7.145	
3287.13550	521.80	8	13.415	
3292.13420	219.40	2	4.558	
3297.57110	223.90	2	4.466	
3304.55340	347.20	4	8.641	
3314.34220	253.50	2	3.945	
3318.92520	218.60	2	4.575	
3326.71790	186.80	2	5.353	
3330.61570	214.60	2	4.660	
3335.98990	271.10	4	11.066	
3340.61420	267.40	2	3.740	
3343.62790	439.30	4	6.829	
3352.24750	517.50	5	7.729	
3357.75600	292.10	2	3.423	
3363.95380	225.50	2	4.435	
3371.43130	294.20	2	3.399	
3376.70700	250.70	3	7.978	
3379.96490	267.70	2	3.736	
3384.32490	249.20	2	4.013	
3389.56610	225.20	3	8.881	
3396.94550	294.40	2	3.397	
3404.36370	214.60	2	4.660	
3413.49880	286.90	3	6.971	
3419.48880	166.40	2	6.010	
3424.18660	212.90	3	9.394	
3431.20520	227.10	2	4.403	
3437.62320	527.90	5	7.577	
3444.77690	535.30	5	7.472	
3451.75770	480.90	4	6.238	
3459.23680	206.70	2	4.838	
3462.44760	201.20	2	4.970	
3467.88180	443.70	5	9.015	
3471.16530	169.20	2	5.910	
3478.48180	241.60	2	4.139	
3486.08360	253.10	2	3.951	
3492.29100	213.80	2	4.677	
3499.68190	311.00	3	6.431	
3506.50400	219.60	2	4.554	
3510.46250	345.20	9	23.175	
3516.91620	228.30	3	8.760	
3525.28820	257.30	3	7.773	
3535.10470	450.70	3	4.438	
3540.92000	278.80	2	3.587	
3546.16960	203.50	2	4.914	
3550.57630	202.70	2	4.933	
3556.21280	380.60	3	5.255	
3564.39160	488.70	4	6.139	
3568.54700	160.40	2	6.234	
3572.83670	321.00	4	9.346	
3580.20710	241.00	2	4.149	
3587.29790	297.00	2	3.367	
3592.75520	486.20	6	10.284	
3599.04050	275.60	2	3.628	
3607.36240	557.40	9	14.352	
3612.37140	278.80	3	7.174	
3617.76260	220.80	2	4.529	
3622.43490	225.20	2	4.440	
3627.84160	479.40	7	12.516	
3637.57310	219.90	2	4.548	

t	46	46	46	
	Duration	Count	Frequency	
[s]	[ms]	[-]	[Hz]	
30.72910	118.90	4	25.231	
49.58760	116.50	3	17.167	
63.49380	249.80	6	20.016	
85.20580	116.50	3	17.167	
100.79140	114.70	4	26.155	
119.53250	108.70	4	27.599	
129.56840	107.20	4	27.985	
154.44470	118.20	4	25.381	
157.62660	105.60	4	28.409	
162.69650	99.70	4	30.090	
184.54830	116.60	4	25.729	
211.78700	117.30	4	25.575	
227.32180	117.50	4	25.532	
248.25270	114.10	4	26.293	
261.36060	115.50	4	25.974	
282.75430	281.70	4	10.650	
291.19250	117.00	4	25.641	
315.37890	115.80	5	34.542	
339.32080	113.10	4	26.525	
348.00010	108.20	4	27.726	
362.31210	112.50	4	26.667	
369.90630	103.00	4	29.126	
376.90980	110.40	4	27.174	
388.19910	114.00	4	26.316	
403.48160	113.60	4	26.408	
419.15740	108.30	5	36.934	
428.17360	107.30	5	37.279	
438.40890	103.00	4	29.126	
449.88470	102.50	4	29.268	
463.43500	110.10	6	45.413	
469.66980	493.80	7	12.151	
478.87460	106.10	5	37.700	
485.24080	103.90	4	28.874	
492.02090	99.30	4	30.211	
502.11970	235.60	5	16.978	
515.38180	107.90	4	27.804	
526.64980	111.70	4	26.858	
538.44340	109.40	4	27.422	
550.13900	104.40	4	28.736	
560.57880	106.50	4	28.169	
570.19760	114.20	5	35.026	
578.80370	236.20	5	16.935	
586.63190	103.60	4	28.958	
599.32190	106.80	4	28.090	
607.16300	109.30	4	27.447	
616.31420	108.00	4	27.778	
623.51380	97.60	4	30.738	
630.29880	112.50	4	26.667	
637.01760	112.50	4	26.667	
646.40670	108.60	4	27.624	
652.04260	103.80	4	28.902	
664.41410	113.10	4	26.525	
685.22870	113.10	4	26.525	
691.94950	114.50	4	26.201	
701.19950	105.70	5	37.843	
713.14240	115.30	4	26.019	
732.50940	116.10	4	25.840	
744.81170	111.20	4	26.978	
750.88070	105.20	4	28.517	
759.81000	105.70	4	28.382	
766.39180	106.10	4	28.275	
773.51250	111.20	3	17.986	
781.90260	530.40	5	7.541	
797.92340	112.90	4	26.572	
807.89950	116.20	4	25.818	
813.71640	105.30	4	28.490	
820.38600	107.20	4	27.985	
827.60950	115.70	3	17.286	
837.40390	104.20	4	28.791	
845.99220	113.80	4	26.362	
852.97420	106.20	4	28.249	
858.75050	105.00	3	19.048	
866.95480	110.70	4	27.100	
875.84270	115.60	4	25.952	
880.48350	103.20	4	29.070	
885.63410	107.10	3	18.674	
898.27320	122.00	4	24.590	
904.66950	108.00	4	27.778	
910.51490	124.90	4	24.019	
921.71490	113.00	3	17.699	
927.74420	101.70	3	19.666	
933.70020	109.50	4	27.397	
945.96590	108.60	4	27.624	
954.97710	116.10	4	25.840	
965.30540	112.70	3	17.746	
972.60430	108.40	4	27.675	
983.31950	119.70	4	25.063	
995.36240	105.00	4	28.571	
999.59920	103.50	4	28.986	
1011.60850	117.20	4	25.597	
1016.58950	111.70	4	26.858	
1028.44220	104.10	4	28.818	
1034.63630	101.80	4	29.470	
1046.12210	115.30	5	34.692	
1054.81640	254.30	5	15.729	
1060.35740	106.80	3	18.727	
1067.11510	118.50	4	25.316	
1076.77780	107.40	3	18.622	
1085.58530	113.00	4	26.549	
1091.59620	109.50	3	18.265	
1105.71120	117.60	4	25.510	
1112.76890	259.70	5	15.402	
1118.89070	105.50	4	28.436	
1131.20930	115.30	4	26.019	
1137.22040	114.00	4	26.316	
1146.69430	115.00	4	26.087	
1150.52200	104.20	4	28.791	
1156.44130	204.90	5	19.522	
1164.04450	111.70	4	26.858	
1175.92440	120.90	4	24.814	
1185.40530	113.60	4	26.408	
1197.88340	104.10	4	28.818	
1204.34910	119.60	4	25.084	
1210.16320	106.90	4	28.064	
1220.72190	111.80	3	17.889	
1228.64460	105.80	4	28.355	
1240.39790	110.90	4	27.051	
1250.70300	122.30	5	32.706	
1257.95450	103.40	4	29.014	
1268.08880	126.60	4	23.697	
1281.50290	1074.30	6	4.654	
1293.14290	229.40	6	21.796	
1306.30330	119.30	3	16.764	
1313.64200	120.10	4	24.979	
1319.79950	282.40	5	14.164	
1325.09570	103.60	4	28.958	
1336.93300	107.70	4	27.855	
1342.26180	107.60	3	18.587	
1350.91240	111.50	4	26.906	
1359.70810	107.90	4	27.804	
1368.84940	116.10	5	34.453	
1375.43390	107.90	3	18.536	
1381.03890	102.10	3	19.589	
1389.91050	110.90	4	27.051	
1399.91060	105.70	4	28.382	
1405.61020	97.40	4	30.801	
1411.50980	115.10	4	26.064	
1420.96270	113.00	3	17.699	
1428.57670	108.10	4	27.752	
1433.89430	100.70	3	19.861	
1441.09590	104.70	3	19.102	
1450.15680	101.80	4	29.470	
1458.04240	105.60	4	28.409	
1472.82480	100.20	3	19.960	
1483.38660	114.60	3	17.452	
1493.90420	109.30	4	27.447	
1503.31680	111.80	3	17.889	
1508.18350	107.00	4	28.037	
1523.10600	110.10	4	27.248	
1532.75650	110.40	3	18.116	
1542.99980	107.30	3	18.639	
1547.40120	104.70	3	19.102	
1555.06150	100.20	4	29.940	
1566.70950	107.80	4	27.829	
1578.83970	102.90	4	29.155	
1593.88500	105.90	4	28.329	
1598.12400	98.50	3	20.305	
1605.89260	107.70	4	27.855	
1614.64450	107.50	4	27.907	
1625.71880	112.10	3	17.841	
1632.22870	98.50	3	20.305	
1639.44150	100.60	4	29.821	
1645.67100	203.20	5	19.685	
1652.30140	110.60	3	18.083	
1675.23780	103.80	4	28.902	
1683.23510	110.90	4	27.051	
1690.55060	109.40	3	18.282	
1705.87070	109.80	4	27.322	
1714.49230	104.10	3	19.212	
1719.16380	109.70	3	18.232	
1730.01150	117.70	4	25.489	
1739.61160	103.60	4	28.958	
1745.87820	111.40	3	17.953	
1759.13260	109.10	3	18.332	
1771.34900	104.70	3	19.102	
1781.55380	117.40	4	25.554	
1792.67810	265.70	4	11.291	
1801.49060	111.40	4	26.930	
1807.14680	103.70	3	19.286	
1815.80130	267.40	4	11.219	
1823.51340	107.20	4	27.985	
1838.57720	109.20	3	18.315	
1846.79460	228.50	4	13.129	
1856.97930	104.90	4	28.599	
1864.88130	111.40	3	17.953	
1871.35380	109.40	4	27.422	
1875.28270	113.30	3	17.652	
1881.72800	233.70	4	12.837	
1892.53270	106.00	4	28.302	
1897.93120	225.30	5	17.754	
1909.09610	103.80	4	28.902	
1923.27730	107.30	4	27.959	
1932.57240	113.40	4	26.455	
1936.70680	200.40	5	19.960	
1943.92750	107.40	3	18.622	
1955.05020	105.50	3	18.957	
1965.02890	109.60	4	27.372	
1970.56470	95.60	4	31.381	
1981.17040	107.20	3	18.657	
1987.14450	97.60	4	30.738	
1993.60050	112.00	3	17.857	
2000.07030	110.10	4	27.248	
2006.24960	110.40	4	27.174	
2013.37070	248.40	4	12.077	
2022.74580	111.10	4	27.003	
2028.72480	97.60	4	30.738	
2035.66430	116.90	4	25.663	
2043.47310	98.50	3	20.305	
2054.20800	108.70	3	18.399	
2059.40380	99.20	4	30.242	
2065.55060	106.40	3	18.797	
2070.00290	94.00	4	31.915	
2083.36160	109.30	3	18.298	
2089.42040	105.20	4	28.517	
2095.33760	112.10	3	17.841	
2100.74800	105.40	4	28.463	
2106.39120	104.30	4	28.763	
2117.93340	106.40	3	18.797	
2131.32070	112.40	5	35.587	
2137.97030	104.60	4	28.681	
2142.80320	237.00	5	16.878	
2149.98260	109.70	4	27.347	
2155.58640	100.20	3	19.960	
2160.69590	100.90	3	19.822	
2167.37130	99.90	4	30.030	
2171.90660	109.60	3	18.248	
2177.32020	97.60	4	30.738	
2182.90860	101.50	3	19.704	
2190.52070	101.00	4	29.703	
2197.05700	104.30	3	19.175	
2204.87160	220.90	4	13.581	
2211.19280	111.90	4	26.810	
2214.87410	96.70	4	31.024	
2222.91040	211.70	5	18.895	
2229.17080	251.40	4	11.933	
2235.51440	97.00	4	30.928	
2243.59860	98.70	4	30.395	
2250.13940	103.70	4	28.930	
2256.16940	107.50	4	27.907	
2260.78620	109.90	4	27.298	
2265.28930	92.70	3	21.575	
2272.55200	101.00	3	19.802	
2279.25380	109.50	3	18.265	
2283.77920	100.90	3	19.822	
2295.02840	105.90	4	28.329	
2299.27490	96.00	3	20.833	
2304.13600	93.10	4	32.223	
2313.42420	112.40	3	17.794	
2320.03530	106.80	3	18.727	
2326.00310	98.10	4	30.581	
2332.88720	111.70	3	17.905	
2337.51620	110.90	3	18.034	
2344.40550	98.20	4	30.550	
2349.60920	95.70	3	20.899	
2352.48060	96.70	4	31.024	
2362.19200	106.10	3	18.850	
2366.63440	100.40	4	29.880	
2374.62970	101.70	3	19.666	
2380.03580	207.10	5	19.314	
2387.13350	113.60	4	26.408	
2394.67900	219.30	5	18.240	
2402.74490	109.50	3	18.265	
2408.82420	100.60	3	19.881	
2412.69640	111.30	4	26.954	
2421.53330	107.90	3	18.536	
2427.79400	124.20	3	16.103	
2431.91410	95.40	4	31.447	
2438.59130	100.30	3	19.940	
2445.00650	111.70	3	17.905	
2451.59240	251.50	4	11.928	
2456.18700	102.20	3	19.569	
2463.48680	109.70	3	18.232	
2470.75650	105.10	4	28.544	
2477.10850	111.60	3	17.921	
2482.78380	221.30	4	13.556	
2489.38100	116.70	3	17.138	
2495.97210	108.50	3	18.433	
2500.43440	96.70	3	20.683	
2506.53650	104.60	4	28.681	
2511.03110	105.10	4	28.544	
2524.30110	255.00	5	15.686	
2528.98630	169.80	4	17.668	
2535.00400	101.20	3	19.763	
2543.95600	108.60	4	27.624	
2547.98290	103.60	3	19.305	
2552.57490	101.30	3	19.743	
2561.06160	97.90	3	20.429	
2565.93730	104.80	3	19.084	
2575.00270	111.10	5	36.004	
2583.52990	119.60	3	16.722	
2590.11800	113.20	3	17.668	
2595.27520	111.20	4	26.978	
2601.36580	105.40	3	18.975	
2606.75570	110.40	4	27.174	
2613.54480	98.50	4	30.457	
2619.53810	235.90	5	16.956	
2625.79270	100.90	5	39.643	
2632.59510	98.70	4	30.395	
2638.22930	97.90	3	20.429	
2646.09570	107.00	3	18.692	
2653.26980	101.70	3	19.666	
2659.27200	116.90	3	17.109	
2665.30430	107.30	3	18.639	
2670.81990	96.00	3	20.833	
2677.10230	111.80	3	17.889	
2681.25520	95.70	3	20.899	
2687.93670	102.20	4	29.354	
2692.87780	127.90	3	15.637	
2699.36950	191.20	4	15.690	
2706.71960	106.70	3	18.744	
2711.96160	97.00	4	30.928	
2716.19910	102.20	4	29.354	
2722.21150	118.50	3	16.878	
2726.30420	105.10	3	19.029	
2736.62330	102.60	3	19.493	
2742.80200	99.30	3	20.141	
2747.61460	178.60	4	16.797	
2754.38330	112.20	3	17.825	
2759.66820	107.80	3	18.553	
2767.70190	101.20	3	19.763	
2773.24590	110.90	3	18.034	
2779.75540	105.80	3	18.904	
2786.32000	102.00	4	29.412	
2791.46900	101.90	3	19.627	
2797.02860	104.10	3	19.212	
2804.68980	102.70	3	19.474	
2812.71500	482.30	5	8.294	
2817.01580	101.50	3	19.704	
2827.32010	118.30	5	33.812	
2831.03430	223.40	7	26.858	
2837.51410	108.90	3	18.365	
2841.47820	100.00	3	20.000	
2847.66350	107.20	3	18.657	
2853.06900	112.60	3	17.762	
2859.26610	113.60	3	17.606	
2870.63060	115.60	4	25.952	
2875.41560	214.60	5	18.639	
2880.17050	114.30	3	17.498	
2885.27330	101.40	4	29.586	
2889.28250	100.10	3	19.980	
2896.13900	203.50	4	14.742	
2899.76210	229.80	5	17.406	
2905.02220	95.80	3	20.877	
2909.87120	105.70	3	18.921	
2914.66170	120.10	3	16.653	
2919.89160	109.50	4	27.397	
2927.02980	116.70	3	17.138	
2932.40630	98.30	3	20.346	
2936.32250	95.20	3	21.008	
2941.83990	103.50	3	19.324	
2949.82220	117.60	3	17.007	
2955.48940	114.50	4	26.201	
2962.67950	111.10	4	27.003	
2968.13930	106.80	3	18.727	
2972.32540	97.40	3	20.534	
2977.60570	112.20	3	17.825	
2984.66330	106.10	3	18.850	
2993.82250	108.80	3	18.382	
2999.62190	102.60	4	29.240	
3002.53730	107.10	3	18.674	
3005.66630	103.30	3	19.361	
3009.96060	101.80	3	19.646	
3014.79330	107.60	3	18.587	
3024.97010	118.40	3	16.892	
3031.65170	101.80	4	29.470	
3037.63500	103.80	3	19.268	
3044.08660	104.90	3	19.066	
3048.65690	237.80	4	12.616	
3052.37890	113.50	3	17.621	
3058.51460	111.10	3	18.002	
3065.32300	293.70	6	17.024	
3068.89380	117.90	3	16.964	
3072.25730	110.50	3	18.100	
3079.35460	124.10	3	16.116	
3083.23380	198.90	4	15.083	
3089.54360	101.20	3	19.763	
3093.33980	93.80	3	21.322	
3102.05640	122.50	3	16.327	
3106.51540	99.70	3	20.060	
3112.95900	106.90	3	18.709	
3118.35760	96.00	3	20.833	
3123.37490	219.30	4	13.680	
3131.87540	309.30	5	12.932	
3137.19300	276.90	4	10.834	
3144.91810	109.10	3	18.332	
3149.43450	256.30	6	19.508	
3156.40550	110.40	3	18.116	
3161.03490	109.40	3	18.282	
3164.78140	103.00	3	19.417	
3172.75290	105.80	4	28.355	
3177.59330	100.70	3	19.861	
3183.00970	110.60	4	27.125	
3186.04270	96.30	3	20.768	
3192.85550	221.80	4	13.526	
3199.28890	105.00	3	19.048	
3207.60310	123.10	3	16.247	
3214.50220	102.90	3	19.436	
3221.41720	117.30	3	17.050	
3227.64360	451.00	4	6.652	
3234.03860	116.00	3	17.241	
3239.36410	123.50	3	16.194	
3244.57070	116.80	3	17.123	
3252.83370	104.10	3	19.212	
3258.02780	100.10	3	19.980	
3263.66830	110.20	3	18.149	
3268.40850	107.90	4	27.804	
3273.60090	101.60	3	19.685	
3277.32570	102.10	3	19.589	
3282.23540	108.40	3	18.450	
3287.14200	114.00	3	17.544	
3292.14230	103.50	3	19.324	
3297.57750	115.60	3	17.301	
3304.56410	112.30	3	17.809	
3314.34680	115.90	3	17.256	
3318.93050	222.60	4	13.477	
3326.72970	113.30	3	17.652	
3330.62560	109.90	3	18.198	
3335.99450	106.90	3	18.709	
3340.61960	110.90	3	18.034	
3343.63790	101.00	3	19.802	
3352.25600	103.60	3	19.305	
3357.76080	108.50	4	27.650	
3363.96070	106.40	3	18.797	
3371.43610	113.60	4	26.408	
3376.71440	100.10	3	19.980	
3379.97110	105.70	3	18.921	
3384.33410	107.60	3	18.587	
3389.57920	106.10	3	18.850	
3396.95340	108.70	3	18.399	
3404.36920	116.20	4	25.818	
3413.50300	112.70	4	26.619	
3419.49560	201.50	5	19.851	
3424.19960	105.40	3	18.975	
3431.21310	104.50	3	19.139	
3437.62990	117.90	3	16.964	
3444.78280	110.30	4	27.199	
3451.76230	278.90	5	14.342	
3459.24710	118.20	3	16.920	
3462.45630	98.40	3	20.325	
3467.88790	126.10	4	23.791	
3471.17490	163.50	4	18.349	
3478.48780	100.10	4	29.970	
3486.09030	103.60	4	28.958	
3492.29920	229.20	4	13.089	
3499.68830	104.60	4	28.681	
3506.50990	111.70	3	17.905	
3510.46920	234.50	7	25.586	
3516.92410	115.20	3	17.361	
3525.29450	109.20	4	27.473	
3529.35580	126.90	3	15.760	
3535.10990	125.00	4	24.000	
3540.92410	108.80	4	27.574	
3546.18180	111.60	4	26.882	
3550.58300	119.90	3	16.681	
3556.21790	107.10	3	18.674	
3564.39800	117.00	4	25.641	
3568.55600	195.40	8	35.824	
3572.84360	223.10	4	13.447	
3580.21410	109.90	4	27.298	
3587.30200	106.60	4	28.143	
3592.75980	262.10	6	19.077	
3599.04530	111.90	4	26.810	
3607.36920	131.70	4	22.779	
3612.37990	103.70	3	19.286	
3617.77280	115.50	3	17.316	
3622.44060	109.60	3	18.248	
3627.84540	121.90	4	24.610	
3637.57940	111.80	4	26.834	

t	47	47	47	
	Duration	Count	Frequency	
[s]	[ms]	[-]	[Hz]	
30.73040	91.20	2	10.965	
100.79600	93.60	3	21.368	
119.53100	89.80	2	11.136	
129.56600	94.40	2	10.593	
157.62890	82.00	3	24.390	
162.69530	76.10	2	13.141	
248.25050	95.20	2	10.504	
282.75290	89.60	2	11.161	
339.32090	95.60	3	20.921	
362.31260	80.40	2	12.438	
369.90700	84.50	4	35.503	
419.15970	112.50	3	17.778	
428.17530	95.20	5	42.017	
438.40420	106.80	4	28.090	
449.88290	110.70	4	27.100	
463.43760	89.30	2	11.198	
478.87690	81.70	3	24.480	
492.02210	88.40	4	33.937	
538.44530	84.30	2	11.862	
550.13890	93.10	4	32.223	
560.57790	84.60	2	11.820	
570.20240	86.10	3	23.229	
586.63150	95.90	4	31.283	
599.32090	90.30	2	11.074	
623.51430	104.60	3	19.120	
630.30140	77.60	4	38.660	
646.40820	72.70	2	13.755	
685.23270	105.40	4	28.463	
701.20390	83.10	4	36.101	
732.51250	88.20	2	11.338	
744.81190	91.00	3	21.978	
750.88620	94.50	5	42.328	
759.80990	79.80	3	25.063	
766.39230	95.40	5	41.929	
773.51440	79.00	2	12.658	
813.71760	91.70	5	43.621	
820.38830	68.60	2	14.577	
827.61190	72.20	2	13.850	
837.40430	97.20	5	41.152	
845.99980	74.40	4	40.323	
852.97600	85.80	4	34.965	
858.75370	105.00	6	47.619	
866.95550	79.20	2	12.626	
880.48600	95.30	5	41.973	
904.67100	83.00	3	24.096	
921.71730	74.80	2	13.369	
927.74340	90.70	4	33.076	
945.96550	76.70	2	13.038	
954.97690	68.40	2	14.620	
965.30680	88.10	4	34.052	
972.60210	78.60	2	12.723	
995.36180	104.20	5	38.388	
999.59100	88.40	3	22.624	
1011.60940	75.40	2	13.263	
1028.44040	104.30	4	28.763	
1034.63300	96.30	5	41.537	
1046.12580	93.50	4	32.086	
1060.35840	69.40	3	28.818	
1076.77530	76.90	2	13.004	
1091.59760	82.40	4	36.408	
1105.71740	83.60	3	23.923	
1112.76810	78.80	2	12.690	
1118.89010	77.30	3	25.873	
1131.20980	75.50	2	13.245	
1197.88100	89.00	4	33.708	
1210.16050	76.50	2	13.072	
1220.72350	99.30	3	20.141	
1228.64350	91.80	5	43.573	
1240.39830	92.00	3	21.739	
1257.94650	113.00	5	35.398	
1306.30560	90.30	3	22.148	
1325.09270	86.90	2	11.507	
1336.93070	99.50	4	30.151	
1342.26400	67.60	4	44.379	
1350.91470	87.10	3	22.962	
1359.70560	96.50	2	10.363	
1368.84950	78.10	2	12.804	
1375.43710	97.10	5	41.195	
1381.03850	84.90	4	35.336	
1399.91040	86.00	4	34.884	
1405.60630	100.00	4	30.000	
1433.89320	80.40	2	12.438	
1441.09470	92.30	4	32.503	
1450.15900	74.20	4	40.431	
1458.04200	85.80	2	11.655	
1472.82390	91.30	4	32.859	
1503.31810	85.50	2	11.696	
1523.10960	85.90	3	23.283	
1543.00010	65.30	2	15.314	
1547.40050	74.80	4	40.107	
1555.06040	96.70	4	31.024	
1578.84040	98.90	6	50.556	
1593.88390	84.10	3	23.781	
1605.89350	75.20	3	26.596	
1632.22840	87.90	4	34.130	
1639.44080	89.20	4	33.632	
1675.23590	100.40	4	29.880	
1714.48940	88.50	2	11.299	
1739.61020	95.30	3	20.986	
1745.88140	68.70	2	14.556	
1759.13290	78.20	2	12.788	
1771.34760	79.00	2	12.658	
1807.14660	90.10	2	11.099	
1815.79840	84.50	2	11.834	
1823.51520	81.50	3	24.540	
1838.57760	95.60	3	20.921	
1856.97760	82.80	2	12.077	
1871.35450	62.80	2	15.924	
1881.72990	91.30	4	32.859	
1892.53580	107.60	6	46.468	
1909.09790	71.60	4	41.899	
1923.27980	92.50	4	32.432	
1955.05180	77.60	3	25.773	
1965.03180	84.00	4	35.714	
1970.56270	63.50	2	15.748	
1987.14590	78.40	3	25.510	
2000.07160	81.80	2	12.225	
2006.25290	71.40	4	42.017	
2022.74940	65.40	2	15.291	
2028.72440	86.10	4	34.843	
2043.47310	93.50	6	53.476	
2059.40230	62.00	2	16.129	
2070.00370	53.40	2	18.727	
2089.42390	78.30	3	25.543	
2100.74950	67.40	3	29.674	
2106.39500	60.30	2	16.584	
2117.93390	79.80	2	12.531	
2131.32230	87.80	3	22.779	
2137.97050	92.40	2	10.823	
2149.98420	85.90	3	23.283	
2155.58600	99.30	5	40.282	
2160.69840	89.20	5	44.843	
2167.37070	82.50	2	12.121	
2171.90800	68.20	3	29.326	
2177.31910	73.30	3	27.285	
2182.90740	77.60	3	25.773	
2204.87280	88.60	3	22.573	
2214.87750	54.30	2	18.416	
2222.91480	54.80	2	18.248	
2235.51430	86.40	5	46.296	
2243.60100	61.50	3	32.520	
2260.78990	72.10	2	13.870	
2265.28820	86.30	4	34.762	
2272.55310	90.10	3	22.198	
2279.25340	69.40	2	14.409	
2283.77720	69.00	2	14.493	
2299.27410	81.00	4	37.037	
2304.13790	95.90	3	20.855	
2326.00710	96.90	4	30.960	
2337.51630	75.60	2	13.228	
2344.40770	98.20	4	30.550	
2349.61070	96.50	5	41.451	
2352.48120	61.90	3	32.310	
2362.19130	84.20	2	11.876	
2366.63640	59.10	2	16.920	
2374.63100	90.60	5	44.150	
2380.03650	75.30	2	13.280	
2387.13750	69.80	2	14.327	
2402.74570	77.00	2	12.987	
2408.82510	84.90	4	35.336	
2412.69930	64.30	3	31.104	
2421.53350	82.50	2	12.121	
2431.91600	55.90	2	17.889	
2438.59300	107.40	5	37.244	
2456.18900	69.60	3	28.736	
2470.76030	87.30	5	45.819	
2495.97260	63.30	2	15.798	
2500.43330	76.30	4	39.318	
2511.03460	56.90	2	17.575	
2528.98720	76.80	3	26.042	
2535.00430	90.10	4	33.296	
2547.98360	76.00	4	39.474	
2552.57700	80.70	3	24.783	
2561.06070	104.50	7	57.416	
2565.93800	65.70	2	15.221	
2590.11960	71.10	2	14.065	
2595.28290	62.30	3	32.103	
2613.54530	101.00	4	29.703	
2625.79100	77.10	2	12.970	
2632.59790	94.60	5	42.283	
2638.23060	70.80	3	28.249	
2646.09460	78.20	2	12.788	
2653.27070	66.40	3	30.120	
2665.30690	61.60	2	16.234	
2670.82120	98.30	4	30.519	
2677.10310	84.40	3	23.697	
2681.25550	86.60	3	23.095	
2687.94130	93.50	4	32.086	
2711.96130	93.00	4	32.258	
2716.19950	75.70	3	26.420	
2736.62470	91.10	5	43.908	
2742.80280	95.40	5	41.929	
2759.66880	75.90	2	13.175	
2767.70040	89.60	3	22.321	
2779.75830	85.10	4	35.253	
2786.32340	85.60	3	23.364	
2791.46840	69.80	2	14.327	
2804.68950	95.20	3	21.008	
2812.71340	96.60	4	31.056	
2817.01310	77.50	2	12.903	
2827.31910	46.20	2	21.645	
2837.51660	69.70	2	14.347	
2841.47570	80.70	2	12.392	
2853.06900	69.90	2	14.306	
2870.63530	86.70	3	23.068	
2885.27560	66.30	3	30.166	
2896.14090	90.10	5	44.395	
2899.76140	64.80	2	15.432	
2905.02190	89.00	3	22.472	
2909.87370	66.20	3	30.211	
2919.89900	55.20	2	18.116	
2932.40470	96.20	4	31.185	
2936.32420	60.60	3	33.003	
2941.83950	84.50	3	23.669	
2968.14260	78.00	3	25.641	
2972.32690	65.10	2	15.361	
2977.60810	79.20	3	25.253	
2984.66500	88.50	4	33.898	
2999.62240	79.20	4	37.879	
3002.53980	71.70	3	27.894	
3005.66540	78.70	2	12.706	
3037.63440	66.60	2	15.015	
3068.89670	62.70	2	15.949	
3072.25970	74.00	3	27.027	
3089.54220	78.20	3	25.575	
3093.34070	55.00	2	18.182	
3106.51420	86.60	3	23.095	
3112.96100	90.20	4	33.259	
3118.35720	73.20	4	40.984	
3144.91900	88.20	4	34.014	
3156.40660	84.30	4	35.587	
3161.03560	77.20	3	25.907	
3164.78020	75.50	3	26.490	
3172.74910	97.20	2	10.288	
3177.59410	93.60	3	21.368	
3186.04050	77.00	3	25.974	
3199.28680	94.90	2	10.537	
3214.50290	104.40	5	38.314	
3227.64190	90.30	5	44.297	
3252.83550	82.20	4	36.496	
3258.02810	54.10	2	18.484	
3268.40850	66.30	2	15.083	
3273.60210	113.40	6	44.092	
3277.32510	80.00	3	25.000	
3282.23820	69.10	2	14.472	
3292.13980	80.60	3	24.814	
3314.34780	76.40	2	13.089	
3326.73430	90.00	3	22.222	
3330.62590	80.30	2	12.453	
3340.61880	72.90	2	13.717	
3343.63220	67.80	2	14.749	
3352.25690	87.10	4	34.443	
3363.95720	84.20	3	23.753	
3376.71080	94.30	4	31.813	
3384.33700	89.10	5	44.893	
3389.58380	91.40	5	43.764	
3419.49890	75.90	2	13.175	
3424.20120	55.40	2	18.051	
3431.21410	109.80	4	27.322	
3444.78310	93.00	2	10.753	
3459.25190	74.30	2	13.459	
3462.45760	102.10	3	19.589	
3478.48660	119.60	4	25.084	
3486.08840	111.60	8	62.724	
3492.30170	98.70	6	50.659	
3499.68580	87.10	3	22.962	
3506.51050	80.50	2	12.422	
3516.92720	82.40	3	24.272	
3525.29340	87.30	3	22.910	
3546.18140	72.10	2	13.870	
3556.21760	88.00	4	34.091	
3580.21350	93.10	5	42.965	
3587.30010	105.20	3	19.011	
3612.37990	90.80	4	33.040	
3637.57920	100.90	3	19.822	

t	48	48	48	
	Duration	Count	Frequency	
[s]	[ms]	[-]	[Hz]	
526.65170	41.20	2	24.272	
578.80440	42.70	2	23.419	
1016.58070	294.50	4	10.187	
1105.72010	481.00	3	4.158	
1156.44140	347.50	2	2.878	
1897.93110	335.70	3	5.958	
2190.52010	43.10	2	23.202	
2299.27480	40.20	2	24.876	
2489.38300	42.80	2	23.364	
3550.58280	379.50	3	5.270	

t	51	51	51	
	Duration	Count	Frequency	
[s]	[ms]	[-]	[Hz]	

t	52	52	52	
	Duration	Count	Frequency	
[s]	[ms]	[-]	[Hz]	
7.84610	70.10	4	42.796	
23.47710	273.30	2	3.659	
102.47290	224.30	8	31.208	
204.05720	161.00	6	31.056	
269.88510	229.50	11	43.573	
314.73350	151.00	9	52.980	
584.70720	726.10	5	5.509	
863.12110	309.80	10	29.051	
906.91510	122.60	4	24.470	
1113.41430	253.90	4	11.816	
1142.17110	12.40	2	80.645	
1473.29820	270.60	2	3.695	
1824.38850	238.50	7	25.157	
2033.99420	32.40	2	30.864	
2680.28880	131.60	9	60.790	

t	53	53	53	
	Duration	Count	Frequency	
[s]	[ms]	[-]	[Hz]	
1016.59130	15.60	2	64.103	
1105.71300	289.10	3	6.918	
1281.50210	1044.50	6	4.787	
3227.64490	451.10	3	4.434	
3252.83380	351.50	4	8.535	
3379.97400	14.80	2	67.568	

t	54	54	54	
	Duration	Count	Frequency	
[s]	[ms]	[-]	[Hz]	
49.58050	64.20	2	15.576	
63.48890	244.10	3	8.193	
85.19820	310.60	3	6.439	
157.62120	191.70	2	5.216	
162.69140	280.70	2	3.563	
184.54300	284.90	2	3.510	
282.75050	444.30	4	6.752	
339.31560	258.00	3	7.752	
369.90280	255.20	2	3.918	
419.15240	376.50	3	5.312	
469.66670	413.00	2	2.421	
538.43970	293.20	5	13.643	
560.57410	323.10	2	3.095	
570.19360	218.60	2	4.575	
586.62900	372.00	2	2.688	
623.51080	257.20	2	3.888	
630.29390	258.40	3	7.740	
652.03630	293.60	4	10.218	
685.22580	311.90	3	6.412	
744.80810	247.20	2	4.045	
750.87480	233.70	2	4.279	
759.80610	390.20	4	7.688	
820.38080	241.00	3	8.299	
837.39820	338.00	2	2.959	
845.98760	309.30	5	12.932	
852.96960	273.50	2	3.656	
858.74690	238.20	2	4.198	
965.29930	222.00	2	4.505	
995.35910	400.10	5	9.998	
1034.63290	403.10	2	2.481	
1046.11340	328.20	4	9.141	
1091.59120	285.60	4	10.504	
1105.70520	204.90	2	4.880	
1131.20650	283.30	3	7.060	
1156.43800	177.50	2	5.634	
1175.92030	261.90	4	11.455	
1197.87960	320.80	2	3.117	
1268.08310	201.30	6	24.839	
1281.49790	992.60	6	5.037	
1293.13980	290.70	5	13.760	
1306.29960	265.70	2	3.764	
1368.84340	248.00	2	4.032	
1375.42660	264.10	2	3.786	
1381.03480	382.70	3	5.226	
1441.09160	327.10	5	12.229	
1450.14980	268.90	2	3.719	
1472.82040	335.00	2	2.985	
1523.10110	230.10	2	4.346	
1555.05780	414.20	4	7.243	
1578.83410	275.80	2	3.626	
1593.88090	447.70	4	6.701	
1632.22520	370.60	5	10.793	
1645.66640	260.30	6	19.209	
1739.60920	320.70	2	3.118	
1745.87480	360.20	4	8.329	
1759.12960	329.90	5	12.125	
1823.50910	206.50	2	4.843	
1856.97580	407.70	6	12.264	
1881.72460	300.80	4	9.973	
1892.52830	248.70	4	12.063	
1923.27300	397.70	2	2.514	
1955.04650	285.50	4	10.508	
1970.56160	257.30	3	7.773	
2000.06650	229.80	2	4.352	
2006.24380	210.30	3	9.510	
2028.72160	325.50	2	3.072	
2043.46920	274.10	2	3.648	
2069.99830	346.00	3	5.780	
2106.38980	328.70	3	6.085	
2149.97720	252.20	3	7.930	
2167.36800	367.60	4	8.161	
2182.90470	419.50	3	4.768	
2204.86790	275.40	4	10.893	
2214.87030	274.80	4	10.917	
2235.51050	308.20	3	6.489	
2243.59570	385.70	3	5.185	
2260.78230	215.60	2	4.638	
2265.28540	422.40	3	4.735	
2272.54830	267.90	3	7.465	
2279.24780	235.00	3	8.511	
2325.99510	239.10	2	4.182	
2344.40100	356.50	4	8.415	
2387.12770	244.40	3	8.183	
2427.78890	254.30	8	27.527	
2470.75070	282.60	2	3.539	
2511.02630	212.30	2	4.710	
2528.98160	190.50	2	5.249	
2535.00060	338.50	2	2.954	
2561.05770	336.10	3	5.951	
2595.27160	214.60	2	4.660	
2625.78980	462.70	5	8.645	
2632.58810	387.70	3	5.159	
2638.22540	385.30	3	5.191	
2653.26530	360.20	5	11.105	
2670.81690	378.30	8	18.504	
2687.92710	284.80	2	3.511	
2699.36520	265.40	3	7.536	
2716.19560	352.20	3	5.679	
2736.61990	378.10	4	7.934	
2742.79810	370.20	3	5.402	
2779.75240	252.50	2	3.960	
2791.46650	369.50	2	2.706	
2812.71140	406.40	2	2.461	
2827.31710	402.60	2	2.484	
2885.26750	292.80	3	6.831	
2889.27840	455.00	5	8.791	
2896.13320	310.50	6	16.103	
2899.75810	471.90	4	6.357	
2905.01720	327.30	3	6.111	
2909.86470	193.10	2	5.179	
2914.65690	246.40	8	28.409	
2919.88250	278.10	4	10.787	
2927.02700	186.20	3	10.741	
2993.81760	431.30	2	2.319	
2999.61770	381.30	3	5.245	
3014.79040	371.70	3	5.381	
3044.08310	406.00	3	4.926	
3052.37390	272.50	4	11.009	
3093.33490	282.40	4	10.623	
3106.51240	433.80	4	6.916	
3118.35390	347.70	2	2.876	
3144.91470	323.50	2	3.091	
3156.40220	231.20	2	4.325	
3161.03220	273.90	3	7.302	
3164.77840	270.10	2	3.702	
3186.03820	326.10	6	15.333	
3227.64060	368.60	2	2.713	
3252.82870	277.40	2	3.605	
3273.59780	303.60	2	3.294	
3326.72410	209.60	3	9.542	
3379.96800	411.40	3	4.861	
3384.32900	359.90	3	5.557	
3389.57220	249.20	2	4.013	
3396.94930	439.30	4	6.829	
3413.50020	406.50	2	2.460	
3419.49100	203.20	2	4.921	
3424.19160	259.90	2	3.848	
3431.20850	344.80	4	8.701	
3478.48350	287.90	2	3.473	
3486.08570	345.20	3	5.794	
3492.29430	269.70	2	3.708	
3506.50550	272.50	4	11.009	
3516.92090	266.70	2	3.750	
3546.17590	222.50	2	4.494	
3556.21510	282.90	4	10.604	
3587.29920	462.90	6	10.801	
3637.57480	324.20	4	9.254	

t	55	55	55	
	Duration	Count	Frequency	
[s]	[ms]	[-]	[Hz]	
119.52660	491.90	3	4.066	
154.44040	74.70	4	40.161	
162.69100	327.10	2	3.057	
211.78200	59.40	2	16.835	
227.31690	52.40	2	19.084	
282.74960	477.40	4	6.284	
369.90130	312.60	2	3.199	
376.90410	65.60	3	30.488	
388.19340	56.60	3	35.336	
469.66640	415.40	3	4.815	
502.11320	72.10	2	13.870	
560.57330	372.30	3	5.372	
616.31000	63.30	4	47.393	
623.50870	376.50	5	10.624	
781.89700	534.70	5	7.481	
807.89510	62.80	2	15.924	
837.39720	365.90	2	2.733	
858.74460	327.60	3	6.105	
898.26930	66.00	4	45.455	
1016.58550	38.90	2	25.707	
1034.63230	465.50	3	4.296	
1131.20600	398.10	3	5.024	
1150.51760	60.80	3	32.895	
1204.34590	61.70	2	16.207	
1281.49710	1013.80	7	5.918	
1375.42690	333.20	2	3.001	
1450.14810	381.10	3	5.248	
1555.05740	422.20	3	4.737	
1593.87920	468.70	4	6.401	
1614.64040	511.80	3	3.908	
1730.00780	62.10	2	16.103	
1739.60790	352.70	2	2.835	
1856.97490	410.70	2	2.435	
1892.52690	389.30	3	5.137	
1923.27080	420.20	2	2.380	
1932.56720	69.10	2	14.472	
2043.46890	436.70	3	4.580	
2106.38810	357.50	2	2.797	
2149.97490	296.00	2	3.378	
2182.90330	437.20	3	4.575	
2243.59430	356.30	5	11.226	
2265.28330	413.00	2	2.421	
2445.00240	505.20	2	1.979	
2470.74900	322.90	2	3.097	
2511.02450	296.80	5	13.477	
2534.99950	371.40	3	5.385	
2561.05610	357.20	2	2.800	
2595.23820	32.00	3	62.500	
2606.75250	498.20	2	2.007	
2625.78940	436.10	6	11.465	
2638.22370	368.60	4	8.139	
2716.19420	306.40	2	3.264	
2742.79750	293.70	3	6.810	
2791.46610	387.30	2	2.582	
2812.71070	407.90	2	2.452	
2889.27730	436.30	4	6.876	
2899.75760	482.40	7	12.438	
2999.61700	319.00	3	6.270	
3014.78960	388.10	2	2.577	
3044.08220	386.30	4	7.766	
3106.51060	435.20	4	6.893	
3118.35300	397.10	6	12.591	
3164.77720	330.70	3	6.048	
3227.64010	379.40	2	2.636	
3252.82760	321.70	2	3.108	
3273.59620	408.90	4	7.337	
3379.96680	402.20	3	4.973	
3389.56930	305.30	2	3.275	
3396.94670	450.00	3	4.444	
3413.49900	419.20	3	4.771	
3587.29900	457.40	5	8.745	

t	56	56	56	
	Duration	Count	Frequency	
[s]	[ms]	[-]	[Hz]	
30.73110	107.60	2	9.294	
49.58900	107.80	2	9.276	
63.49590	104.10	2	9.606	
85.20830	103.70	2	9.643	
100.79760	100.90	2	9.911	
119.53180	102.80	2	9.728	
129.56890	100.70	2	9.930	
154.44580	316.80	3	6.313	
157.63030	156.50	4	19.169	
162.69640	92.40	2	10.823	
184.55400	105.50	2	9.479	
211.78710	112.20	3	17.825	
227.32020	116.60	2	8.576	
248.25130	297.70	3	6.718	
261.36140	298.30	3	6.705	
282.75460	105.60	2	9.470	
291.19190	294.90	4	10.173	
315.38030	107.20	2	9.328	
339.32220	104.30	2	9.588	
347.99950	101.10	2	9.891	
362.31270	294.50	3	6.791	
369.90780	93.30	2	10.718	
376.90770	108.50	2	9.217	
388.19740	111.70	2	8.953	
403.48290	104.00	2	9.615	
419.16000	93.00	2	10.753	
428.17640	96.30	2	10.384	
438.40670	95.90	2	10.428	
449.88340	95.10	2	10.515	
463.43870	269.30	3	7.427	
469.66790	99.00	2	10.101	
478.87720	94.30	2	10.604	
485.24080	98.20	2	10.183	
492.02220	88.70	2	11.274	
502.12130	116.20	2	8.606	
515.37970	106.10	2	9.425	
526.65070	239.80	3	8.340	
538.44590	207.10	3	9.657	
550.14000	94.00	2	10.638	
560.57850	100.10	2	9.990	
570.20280	99.20	3	20.161	
578.80480	104.00	2	9.615	
586.63300	95.30	2	10.493	
599.32190	96.70	2	10.341	
607.16500	216.60	3	9.234	
616.31230	104.00	2	9.615	
623.51500	88.70	2	11.274	
630.30240	174.50	3	11.461	
637.01920	106.80	2	9.363	
646.40860	226.40	3	8.834	
652.04380	98.90	2	10.111	
664.41340	107.40	3	18.622	
685.23390	100.30	2	9.970	
691.95090	108.40	2	9.225	
701.20350	239.20	3	8.361	
713.14360	208.70	3	9.583	
732.51240	103.40	2	9.671	
744.81270	102.70	2	9.737	
750.88590	93.90	2	10.650	
759.81050	94.90	2	10.537	
766.39300	91.00	2	10.989	
773.51500	101.50	2	9.852	
781.90070	115.50	2	8.658	
797.92190	110.20	2	9.074	
807.89730	116.40	2	8.591	
813.71810	92.40	2	10.823	
820.38880	94.60	2	10.571	
827.61280	102.40	2	9.766	
837.40490	93.80	2	10.661	
846.00050	95.20	2	10.504	
852.97640	97.40	2	10.267	
858.75530	91.80	2	10.893	
866.95560	106.30	2	9.407	
875.84220	115.80	3	17.271	
880.48720	92.10	2	10.858	
885.63550	100.10	2	9.990	
898.27180	306.60	3	6.523	
904.67160	98.90	2	10.111	
921.71810	106.80	2	9.363	
927.74370	95.50	3	20.942	
933.70010	106.50	2	9.390	
945.96570	255.00	3	7.843	
954.97790	119.90	3	16.681	
965.30730	104.60	2	9.560	
972.60230	105.20	2	9.506	
983.32050	211.80	5	18.886	
995.36170	98.70	2	10.132	
999.59510	97.30	2	10.277	
1011.60960	113.60	2	8.803	
1016.58660	113.90	2	8.780	
1028.44150	95.70	2	10.449	
1034.63540	94.40	2	10.593	
1046.12650	101.10	2	9.891	
1054.81530	262.70	5	15.226	
1060.35880	98.40	2	10.163	
1067.11420	127.90	2	7.819	
1076.77720	100.40	2	9.960	
1085.58440	299.40	4	10.020	
1091.59870	98.10	2	10.194	
1105.71800	185.30	3	10.793	
1112.76820	103.80	2	9.634	
1118.89110	95.20	2	10.504	
1131.21010	106.50	2	9.390	
1137.21900	112.40	2	8.897	
1146.69470	110.60	2	9.042	
1150.52020	103.40	2	9.671	
1164.04490	108.60	2	9.208	
1175.92290	133.30	3	15.004	
1185.40400	106.50	2	9.390	
1197.88090	96.90	2	10.320	
1204.34920	124.10	2	8.058	
1210.16050	104.50	3	19.139	
1220.72430	237.20	3	8.432	
1228.64430	236.80	3	8.446	
1240.39910	105.50	2	9.479	
1250.70330	280.90	4	10.680	
1257.95190	98.60	2	10.142	
1268.09240	152.30	3	13.132	
1281.50170	1086.90	8	6.440	
1293.14730	115.50	3	17.316	
1306.30710	109.20	2	9.158	
1313.64230	118.00	2	8.475	
1319.79880	297.30	3	6.727	
1325.09430	97.70	2	10.235	
1336.93260	270.10	4	11.107	
1342.26450	96.10	2	10.406	
1350.91540	103.10	2	9.699	
1359.70610	102.50	2	9.756	
1368.84990	112.30	2	8.905	
1375.43850	97.00	2	10.309	
1381.04030	226.60	4	13.239	
1389.90770	106.00	2	9.434	
1399.91100	99.10	2	10.091	
1405.60940	85.40	2	11.710	
1411.50960	146.50	2	6.826	
1420.96410	108.10	2	9.251	
1428.57680	112.80	3	17.730	
1433.89460	94.30	2	10.604	
1441.09530	98.00	3	20.408	
1450.15950	90.50	2	11.050	
1458.04320	101.10	2	9.891	
1472.82360	95.30	2	10.493	
1483.38710	257.20	3	7.776	
1493.90270	105.70	2	9.461	
1503.31850	246.70	3	8.107	
1508.18390	104.90	2	9.533	
1523.10980	97.40	2	10.267	
1532.75720	107.30	2	9.320	
1543.00040	101.20	2	9.881	
1547.40090	101.20	2	9.881	
1555.06120	92.30	2	10.834	
1566.71080	104.00	2	9.615	
1578.84090	94.00	2	10.638	
1593.88470	94.60	2	10.571	
1598.12190	97.20	2	10.288	
1605.89250	192.50	5	20.779	
1614.64450	102.40	2	9.766	
1625.71970	108.10	2	9.251	
1632.22880	90.50	2	11.050	
1639.44200	228.90	3	8.737	
1652.30300	110.50	3	18.100	
1675.23620	100.40	2	9.960	
1683.23490	107.00	2	9.346	
1690.55180	220.30	4	13.618	
1705.86960	304.30	4	9.859	
1714.49100	99.70	2	10.030	
1719.16380	268.90	3	7.438	
1730.01220	117.60	3	17.007	
1739.61120	95.80	2	10.438	
1745.88190	103.70	2	9.643	
1759.13400	102.80	2	9.728	
1771.34840	99.00	2	10.101	
1781.55440	113.90	2	8.780	
1792.67740	102.50	2	9.756	
1801.48970	106.90	2	9.355	
1807.14700	98.10	2	10.194	
1815.79940	94.60	2	10.571	
1823.51600	98.50	2	10.152	
1838.57860	235.40	3	8.496	
1846.79480	106.60	2	9.381	
1856.97790	101.10	2	9.891	
1864.88200	106.40	2	9.398	
1871.35560	109.80	3	18.215	
1875.28250	270.00	3	7.407	
1881.73030	93.60	2	10.684	
1892.53690	90.40	2	11.062	
1897.93170	300.20	6	16.656	
1909.09850	92.20	2	10.846	
1923.28060	260.60	3	7.675	
1932.57310	285.10	3	7.015	
1936.70990	102.50	2	9.756	
1943.92660	106.30	2	9.407	
1955.05200	95.30	2	10.493	
1965.03280	99.30	2	10.070	
1970.56420	85.40	2	11.710	
1981.17130	102.50	2	9.756	
1987.14600	88.30	2	11.325	
1993.60180	114.80	2	8.711	
2000.07220	100.60	2	9.940	
2006.25380	98.30	2	10.173	
2013.37210	95.80	2	10.438	
2022.74960	100.90	2	9.911	
2028.72530	90.20	2	11.086	
2035.66500	123.10	2	8.123	
2043.47360	88.90	2	11.249	
2054.20670	108.50	2	9.217	
2059.40280	93.80	2	10.661	
2065.54970	233.20	4	12.864	
2070.00410	85.10	2	11.751	
2083.36230	106.20	3	18.832	
2089.42380	96.30	2	10.384	
2095.33800	254.40	3	7.862	
2100.75030	220.30	3	9.079	
2106.39540	93.40	2	10.707	
2117.93430	100.10	2	9.990	
2131.32280	98.30	2	10.173	
2137.97050	246.10	4	12.190	
2142.80410	98.40	2	10.163	
2149.98430	189.80	3	10.537	
2155.58630	92.10	2	10.858	
2160.69880	91.10	2	10.977	
2167.37130	95.50	2	10.471	
2171.90890	173.40	3	11.534	
2177.31940	97.90	3	20.429	
2182.90880	96.20	2	10.395	
2190.52060	267.40	3	7.479	
2197.05560	103.20	2	9.690	
2204.87370	96.40	2	10.373	
2211.19250	116.60	3	17.153	
2214.87790	86.00	2	11.628	
2222.91530	139.60	5	28.653	
2229.17030	120.30	3	16.625	
2235.51400	88.90	2	11.249	
2243.60150	86.40	2	11.574	
2250.14010	100.60	2	9.940	
2256.16870	209.40	6	23.878	
2260.79000	113.70	3	17.590	
2265.28820	87.60	2	11.416	
2272.55380	90.80	2	11.013	
2279.25320	160.60	3	12.453	
2283.77780	96.80	2	10.331	
2295.02890	100.20	2	9.980	
2299.27460	93.30	2	10.718	
2304.13840	83.10	2	12.034	
2313.42590	120.10	4	24.979	
2320.03500	102.10	2	9.794	
2326.00710	87.70	2	11.403	
2332.88700	117.40	2	8.518	
2337.51750	156.80	4	19.133	
2344.40820	86.20	2	11.601	
2349.61120	85.60	2	11.682	
2352.48170	90.30	2	11.074	
2362.19200	101.60	2	9.843	
2366.63650	92.00	2	10.870	
2374.63080	93.10	2	10.741	
2380.03700	104.90	2	9.533	
2387.13870	105.70	2	9.461	
2394.68090	105.60	2	9.470	
2402.74580	207.40	3	9.643	
2408.82570	90.60	2	11.038	
2412.69940	113.00	2	8.850	
2421.53440	241.50	3	8.282	
2431.91670	81.70	2	12.240	
2438.59370	90.90	2	11.001	
2445.00740	276.10	4	10.866	
2451.59330	120.60	2	8.292	
2456.18940	94.80	2	10.549	
2463.48770	234.40	3	8.532	
2470.76090	96.80	2	10.331	
2477.10900	114.60	2	8.726	
2482.78610	211.00	4	14.218	
2489.38280	151.50	4	19.802	
2495.97320	203.10	3	9.847	
2500.43370	91.60	2	10.917	
2506.53530	299.50	3	6.678	
2511.03550	94.20	2	10.616	
2524.30280	114.80	2	8.711	
2528.98780	115.70	3	17.286	
2535.00490	222.60	3	8.985	
2543.95480	274.90	3	7.275	
2547.98430	100.90	2	9.911	
2552.57750	217.40	3	9.200	
2561.06070	91.30	2	10.953	
2565.93870	98.50	2	10.152	
2575.00380	187.90	3	10.644	
2590.12020	117.40	4	25.554	
2595.28350	99.30	3	20.141	
2601.36650	190.10	3	10.521	
2606.75620	118.10	2	8.467	
2613.54550	88.10	2	11.351	
2619.53680	256.90	8	27.248	
2625.79140	96.80	2	10.331	
2632.59800	86.30	2	11.587	
2638.23100	87.80	2	11.390	
2646.09530	101.10	2	9.891	
2653.27100	95.20	3	21.008	
2659.27280	225.10	3	8.885	
2665.30740	100.80	2	9.921	
2670.82170	82.90	2	12.063	
2677.10380	109.00	3	18.349	
2681.25580	89.80	2	11.136	
2687.94220	85.00	2	11.765	
2692.87780	251.90	6	19.849	
2699.37370	95.20	2	10.504	
2706.72150	293.90	3	6.805	
2711.96080	91.10	2	10.977	
2716.20000	98.60	2	10.142	
2722.21110	278.50	3	7.181	
2726.30630	102.20	2	9.785	
2736.62580	92.70	2	10.787	
2742.80320	93.00	2	10.753	
2754.38510	177.90	3	11.242	
2759.66980	104.00	2	9.615	
2767.70160	95.80	2	10.438	
2773.24750	204.30	5	19.579	
2779.75880	96.60	2	10.352	
2786.32410	89.20	2	11.211	
2791.46960	243.00	3	8.230	
2797.02900	103.50	2	9.662	
2804.68980	95.70	2	10.449	
2812.71380	98.50	2	10.152	
2817.01470	102.70	2	9.737	
2827.32040	117.90	2	8.482	
2831.03570	227.60	3	8.787	
2837.51760	99.90	2	10.010	
2841.47790	98.20	3	20.367	
2847.66180	105.10	2	9.515	
2853.06970	227.30	6	21.997	
2859.26700	117.70	2	8.496	
2870.63600	106.40	3	18.797	
2875.41960	282.10	4	10.635	
2885.27750	89.90	2	11.123	
2889.28190	99.10	2	10.091	
2896.14120	115.30	4	26.019	
2899.76260	221.20	3	9.042	
2905.02150	89.40	2	11.186	
2909.87490	140.50	5	28.470	
2919.89960	101.90	3	19.627	
2932.40550	235.10	3	8.507	
2936.32500	181.30	3	11.031	
2941.84050	219.80	3	9.099	
2949.82260	277.70	6	18.005	
2955.48750	276.70	6	18.070	
2962.67710	112.50	2	8.889	
2968.14310	105.60	3	18.939	
2972.32740	89.70	3	22.297	
2977.60890	126.10	4	23.791	
2984.66560	239.70	4	12.516	
2993.82100	107.80	2	9.276	
2999.62270	93.10	2	10.741	
3002.54100	121.90	3	16.407	
3005.66720	177.60	3	11.261	
3009.96050	100.50	2	9.950	
3014.79400	242.50	3	8.247	
3024.97100	138.70	2	7.210	
3031.64970	101.20	2	9.881	
3037.63550	101.80	2	9.823	
3044.08670	102.80	2	9.728	
3048.65840	223.70	5	17.881	
3058.51540	238.00	3	8.403	
3065.31980	99.60	2	10.040	
3089.54260	241.40	3	8.285	
3093.34130	84.00	2	11.905	
3102.05720	309.00	9	25.890	
3106.51530	92.60	2	10.799	
3112.96140	94.20	2	10.616	
3118.35760	87.60	2	11.416	
3131.87530	123.20	2	8.117	
3137.19280	292.20	3	6.845	
3144.91970	102.60	2	9.747	
3149.43700	243.40	4	12.325	
3156.40710	99.80	2	10.020	
3161.03690	103.50	2	9.662	
3164.78150	101.10	3	19.782	
3172.75050	104.20	2	9.597	
3177.59520	90.40	2	11.062	
3183.01080	248.90	5	16.071	
3186.04250	193.20	3	10.352	
3192.85660	184.90	3	10.817	
3199.28800	96.70	2	10.341	
3207.60550	178.10	6	28.074	
3214.50310	95.80	3	20.877	
3221.41530	126.70	2	7.893	
3227.64420	92.40	2	10.823	
3234.04150	254.20	3	7.868	
3239.36360	142.20	3	14.065	
3244.57010	257.70	5	15.522	
3252.83550	95.30	2	10.493	
3258.02890	90.50	2	11.050	
3263.66740	112.00	2	8.929	
3268.41020	101.00	2	9.901	
3273.60320	90.30	2	11.074	
3277.32530	101.00	2	9.901	
3282.23960	99.20	3	20.161	
3287.14200	218.00	3	9.174	
3292.14130	100.00	2	10.000	
3297.57800	144.50	3	13.841	
3304.56560	250.20	3	7.994	
3314.34880	108.60	2	9.208	
3318.93000	203.70	3	9.818	
3326.73460	158.40	3	12.626	
3330.62680	108.60	2	9.208	
3335.99460	262.40	3	7.622	
3340.62010	255.60	3	7.825	
3343.63490	100.50	2	9.950	
3352.25730	96.00	2	10.417	
3357.75790	107.90	2	9.268	
3363.95880	100.10	2	9.990	
3371.43540	118.10	2	8.467	
3376.71270	94.00	2	10.638	
3379.96790	110.30	2	9.066	
3384.33820	98.60	2	10.142	
3389.58480	94.70	2	10.560	
3396.95360	106.10	2	9.425	
3404.37100	114.50	2	8.734	
3413.50220	113.00	3	17.699	
3424.20200	97.30	2	10.277	
3431.21450	98.30	2	10.173	
3437.63010	286.80	3	6.974	
3444.78360	269.30	3	7.427	
3451.76300	119.10	3	16.793	
3459.25210	115.00	3	17.391	
3462.45970	85.30	2	11.723	
3467.88750	245.60	3	8.143	
3478.48700	93.10	2	10.741	
3486.08910	97.00	2	10.309	
3492.30310	97.10	2	10.299	
3499.68600	101.30	2	9.872	
3506.51150	107.30	3	18.639	
3510.47010	279.20	2	3.582	
3516.92860	104.90	2	9.533	
3525.29380	103.20	2	9.690	
3529.35610	276.40	10	32.562	
3535.10940	299.10	4	10.030	
3540.92330	106.20	2	9.416	
3546.18250	113.90	2	8.780	
3550.58300	149.40	2	6.693	
3556.21850	103.30	3	19.361	
3564.39600	120.00	2	8.333	
3572.84520	201.00	4	14.925	
3580.21390	235.60	3	8.489	
3587.30120	104.60	2	9.560	
3592.75960	124.80	3	16.026	
3599.04450	110.40	2	9.058	
3607.37050	207.30	4	14.472	
3612.38160	96.90	2	10.320	
3617.77540	113.80	2	8.787	
3622.44180	189.00	4	15.873	
3627.84460	269.20	5	14.859	
3637.57990	108.60	2	9.208	

t	57	57	57	
	Duration	Count	Frequency	
[s]	[ms]	[-]	[Hz]	
30.72590	111.90	5	35.746	
49.58220	104.80	5	38.168	
63.49050	230.80	8	30.329	
85.19800	517.10	17	30.942	
100.79210	204.80	9	39.063	
119.52610	100.40	4	29.880	
129.56000	100.40	5	39.841	
154.43880	98.50	5	40.609	
157.62580	457.80	8	15.291	
162.69040	63.70	3	31.397	
184.54900	92.60	3	21.598	
211.77890	101.50	5	39.409	
227.31240	76.30	5	52.425	
248.24600	93.80	4	31.983	
261.35090	97.70	6	51.177	
282.74860	110.70	4	27.100	
291.18530	92.80	6	53.879	
315.37400	40.60	2	24.631	
339.31710	208.70	7	28.749	
347.99100	91.20	5	43.860	
362.30580	40.90	2	24.450	
369.90230	36.90	2	27.100	
376.90030	71.00	4	42.254	
388.18740	72.10	4	41.609	
403.47540	71.60	4	41.899	
419.15650	107.00	3	18.692	
428.17100	96.10	4	31.217	
438.39480	95.20	4	31.513	
449.87690	109.10	3	18.332	
463.43170	79.80	3	25.063	
469.65690	75.50	4	39.735	
478.87330	83.00	3	24.096	
485.22960	94.30	6	53.022	
492.01860	36.80	2	27.174	
502.11640	67.40	3	29.674	
515.37230	69.70	4	43.042	
526.64510	78.00	4	38.462	
538.44030	80.40	3	24.876	
550.13350	41.20	2	24.272	
560.57350	92.80	3	21.552	
570.19830	37.20	2	26.882	
578.79940	82.50	5	48.485	
586.62740	89.90	4	33.370	
599.31550	101.90	3	19.627	
607.15920	68.60	3	29.155	
616.30250	93.10	6	53.706	
623.50760	98.80	3	20.243	
630.29830	38.00	2	26.316	
637.01360	71.70	6	69.735	
646.40320	66.10	3	30.257	
652.03590	86.60	4	34.642	
664.41000	66.60	4	45.045	
685.22880	96.00	3	20.833	
691.94620	84.60	6	59.102	
701.19950	34.10	2	29.326	
713.13850	177.80	4	16.873	
732.50840	82.30	3	24.301	
744.80780	74.10	3	26.991	
750.88200	34.20	2	29.240	
759.80720	37.00	2	27.027	
766.38890	36.60	2	27.322	
773.50960	39.50	2	25.316	
781.89410	61.90	4	48.465	
797.91820	87.60	6	57.078	
807.89250	42.60	2	23.474	
813.71240	40.40	2	24.752	
820.38530	37.70	2	26.525	
827.60730	67.80	4	44.248	
837.39900	95.80	3	20.877	
845.99580	98.40	3	20.325	
852.96910	40.60	2	24.631	
858.74830	104.70	3	19.102	
866.95180	92.10	4	32.573	
875.83860	82.80	5	48.309	
880.48280	35.00	2	28.571	
885.62910	41.60	2	24.038	
898.26660	58.90	4	50.934	
904.66660	40.00	2	25.000	
910.51090	164.40	10	54.745	
921.71360	65.20	4	46.012	
927.73720	42.10	2	23.753	
933.69530	81.50	6	61.350	
945.96130	64.10	3	31.201	
954.97310	83.00	3	24.096	
965.30320	78.40	3	25.510	
972.59620	73.50	4	40.816	
983.31460	83.40	5	47.962	
995.35580	41.00	2	24.390	
999.55950	106.30	6	47.037	
1011.60600	86.60	5	46.189	
1016.57220	90.30	4	33.223	
1028.43600	100.70	5	39.722	
1034.62380	45.90	2	21.786	
1046.12270	96.20	4	31.185	
1054.81000	69.10	3	28.944	
1060.35480	38.20	3	52.356	
1067.10910	75.20	5	53.191	
1076.76910	108.10	3	18.501	
1085.57790	70.40	4	42.614	
1091.59280	39.80	2	25.126	
1105.71390	484.40	7	12.386	
1112.76290	93.40	5	42.827	
1118.88370	96.30	4	31.153	
1131.20510	88.80	4	33.784	
1137.21240	71.40	4	42.017	
1146.68950	91.30	7	65.717	
1150.50500	90.20	4	33.259	
1156.43510	422.10	16	35.537	
1164.04060	81.70	5	48.960	
1175.91920	165.20	5	24.213	
1185.40020	84.80	4	35.377	
1197.87390	43.80	2	22.831	
1204.34030	49.30	2	20.284	
1210.15330	57.70	3	34.662	
1220.72120	92.70	3	21.575	
1228.63390	105.20	5	38.023	
1240.39400	89.40	3	22.371	
1250.69760	88.70	7	67.644	
1257.93690	117.60	5	34.014	
1268.08850	214.10	8	32.695	
1281.49590	1099.00	8	6.369	
1293.14210	234.70	6	21.304	
1306.30270	33.00	2	30.303	
1313.63710	78.50	4	38.217	
1319.79150	76.40	4	39.267	
1325.08500	91.80	4	32.680	
1336.92370	105.70	5	37.843	
1342.25880	66.60	3	30.030	
1350.91100	94.20	5	42.463	
1359.70040	62.80	4	47.771	
1368.84560	72.90	4	41.152	
1375.43380	37.60	3	53.191	
1381.03350	39.80	2	25.126	
1389.89720	94.40	5	42.373	
1399.90540	62.80	4	47.771	
1405.60330	41.40	2	24.155	
1411.50460	72.10	5	55.479	
1420.95780	64.70	3	30.912	
1428.57200	79.20	6	63.131	
1433.88920	74.80	5	53.476	
1441.09010	89.90	4	33.370	
1450.15410	38.90	3	51.414	
1458.03670	75.60	5	52.910	
1472.81780	41.80	2	23.923	
1483.38250	72.90	5	54.870	
1493.89360	85.10	7	70.505	
1503.31440	87.30	5	45.819	
1508.17720	78.10	5	51.216	
1523.10600	87.90	3	22.753	
1532.74840	72.00	5	55.556	
1542.99640	83.90	5	47.676	
1547.39650	68.20	4	43.988	
1555.05560	84.00	4	35.714	
1566.70530	67.60	4	44.379	
1578.83720	36.50	3	54.795	
1593.87850	98.80	3	20.243	
1598.11190	84.40	6	59.242	
1605.88980	168.80	4	17.773	
1614.63900	82.00	5	48.780	
1625.71580	86.00	4	34.884	
1632.22350	94.10	5	42.508	
1639.43500	59.40	3	33.670	
1645.66750	178.30	9	44.868	
1652.29880	83.50	3	23.952	
1675.23110	40.50	2	24.691	
1683.22780	90.40	6	55.310	
1690.54620	38.90	2	25.707	
1705.86630	87.80	6	56.948	
1714.48440	87.50	7	68.571	
1719.15590	70.80	5	56.497	
1730.00710	77.50	5	51.613	
1739.60620	50.10	3	39.920	
1745.87730	80.50	3	24.845	
1759.12960	37.20	2	26.882	
1771.34270	93.90	4	31.949	
1781.54970	76.50	6	65.359	
1792.67080	94.10	5	42.508	
1801.48420	88.80	6	56.306	
1807.14240	85.40	5	46.838	
1815.79400	91.40	3	21.882	
1823.51080	190.30	4	15.765	
1838.57410	94.30	6	53.022	
1846.79110	73.70	5	54.274	
1856.96960	83.80	6	59.666	
1864.87430	87.90	6	56.883	
1871.34980	74.60	4	40.214	
1875.27080	66.20	4	45.317	
1881.72530	50.20	3	39.841	
1892.53280	31.70	2	31.546	
1897.92610	64.90	4	46.225	
1909.09450	36.30	2	27.548	
1923.27670	36.70	3	54.496	
1932.56840	64.40	4	46.584	
1936.70320	73.00	5	54.795	
1943.92110	78.80	5	50.761	
1955.04620	99.50	4	30.151	
1965.02780	37.60	2	26.596	
1970.48560	108.50	3	18.433	
1981.16850	47.90	3	41.754	
1987.14230	37.00	3	54.054	
1993.59750	78.50	5	50.955	
2000.06740	82.40	4	36.408	
2006.24990	36.40	2	27.473	
2013.36660	82.70	3	24.184	
2022.74590	34.70	2	28.818	
2028.71790	92.30	6	54.171	
2035.65870	58.40	3	34.247	
2043.46810	101.30	3	19.743	
2054.20160	69.60	4	43.103	
2059.39630	60.60	4	49.505	
2065.54330	69.70	4	43.042	
2069.99890	91.70	4	32.715	
2083.35880	92.50	4	32.432	
2089.41900	38.70	2	25.840	
2095.33350	67.50	4	44.444	
2100.74500	91.60	4	32.751	
2106.39090	54.20	3	36.900	
2117.92950	52.10	3	38.388	
2131.31650	65.80	3	30.395	
2137.96670	53.20	3	37.594	
2142.79950	54.70	3	36.563	
2149.98000	553.40	7	10.842	
2155.57960	92.50	5	43.243	
2160.69480	84.30	5	47.450	
2167.36510	55.40	3	36.101	
2171.90100	72.80	6	68.681	
2177.31510	74.60	4	40.214	
2182.90240	75.00	4	40.000	
2190.51350	78.10	4	38.412	
2197.04840	74.80	5	53.476	
2204.86800	89.40	5	44.743	
2211.18780	74.50	5	53.691	
2214.87330	33.20	2	30.120	
2222.91130	163.00	6	30.675	
2229.16340	60.80	2	16.447	
2235.51050	89.60	4	33.482	
2243.59680	93.60	3	21.368	
2250.12700	90.70	6	55.127	
2256.16350	75.10	6	66.578	
2260.78600	38.50	2	25.974	
2265.27770	77.70	4	38.610	
2272.54890	36.90	2	27.100	
2279.24980	56.30	3	35.524	
2283.76620	67.10	3	29.806	
2295.02450	85.60	7	70.093	
2299.27000	78.60	5	50.891	
2304.13380	34.70	2	28.818	
2313.42260	62.80	5	63.694	
2320.02960	77.20	4	38.860	
2326.00400	32.10	2	31.153	
2332.88040	66.90	4	44.843	
2337.51240	59.40	4	50.505	
2344.40240	35.10	3	56.980	
2349.60610	33.80	2	29.586	
2352.47710	35.50	2	28.169	
2362.18690	66.60	4	45.045	
2366.63120	37.80	3	52.910	
2374.62810	67.50	4	44.444	
2380.03250	79.30	4	37.831	
2387.13380	61.30	3	32.626	
2394.67720	89.20	3	22.422	
2402.74110	78.60	6	63.613	
2408.82050	88.10	5	45.403	
2412.69440	61.60	3	32.468	
2421.52870	86.00	4	34.884	
2427.79320	420.30	9	19.034	
2431.91180	38.70	3	51.680	
2438.59040	31.70	2	31.546	
2445.00230	70.10	4	42.796	
2451.58970	53.10	3	37.665	
2456.18520	55.50	3	36.036	
2463.48230	84.50	5	47.337	
2470.75700	90.50	3	22.099	
2477.10280	70.00	4	42.857	
2482.78140	81.60	6	61.275	
2489.37810	54.80	3	36.496	
2495.96760	78.30	4	38.314	
2500.42570	87.00	4	34.483	
2506.52350	66.00	5	60.606	
2511.03070	33.90	2	29.499	
2524.29700	51.70	4	58.027	
2528.98200	79.50	4	37.736	
2534.99960	93.40	4	32.120	
2543.94660	84.80	5	47.170	
2547.98000	52.10	3	38.388	
2552.57370	79.60	4	37.688	
2561.05540	100.50	4	29.851	
2565.93380	40.50	2	24.691	
2574.99650	86.70	6	57.670	
2583.52670	167.00	6	29.940	
2590.11640	83.10	3	24.067	
2595.27990	31.50	2	31.746	
2601.36370	74.20	4	40.431	
2606.75110	58.60	3	34.130	
2613.54060	88.20	4	34.014	
2619.53310	60.50	3	33.058	
2625.78570	76.50	4	39.216	
2632.59470	52.20	3	38.314	
2638.22480	36.40	2	27.473	
2646.08810	79.80	5	50.125	
2653.26610	56.10	4	53.476	
2659.26510	71.20	6	70.225	
2665.30330	74.10	3	26.991	
2670.81730	35.20	2	28.409	
2677.09970	74.40	4	40.323	
2681.25050	77.80	5	51.414	
2687.93730	81.20	4	36.946	
2692.87000	141.50	4	21.201	
2699.36950	83.40	5	47.962	
2706.71720	55.00	4	54.545	
2711.95810	85.20	3	23.474	
2716.19350	70.80	4	42.373	
2722.20570	69.70	3	28.694	
2726.30100	74.00	4	40.541	
2736.61940	55.10	4	54.446	
2742.79920	76.60	3	26.110	
2747.61170	57.60	3	34.722	
2754.38030	82.80	4	36.232	
2759.66450	70.70	5	56.577	
2767.69530	86.00	5	46.512	
2773.24330	71.20	5	56.180	
2779.75440	89.40	5	44.743	
2786.31990	32.80	2	30.488	
2791.46050	75.10	4	39.947	
2797.02200	60.50	3	33.058	
2804.68260	58.50	3	34.188	
2812.70920	88.30	5	45.300	
2817.00810	70.50	4	42.553	
2827.31550	58.60	2	17.065	
2831.02810	63.20	3	31.646	
2837.51370	89.00	5	44.944	
2841.46720	92.60	5	43.197	
2847.65310	81.30	3	24.600	
2853.06560	64.60	6	77.399	
2859.26320	52.80	4	56.818	
2870.63080	34.90	2	28.653	
2875.41540	71.10	6	70.323	
2880.16420	72.00	4	41.667	
2885.27310	32.00	2	31.250	
2889.27520	73.80	6	67.751	
2896.13840	33.40	2	29.940	
2899.75710	43.90	3	45.558	
2905.01780	93.10	3	21.482	
2909.87070	34.10	2	29.326	
2914.65890	70.80	5	56.497	
2919.89590	32.00	2	31.250	
2927.02710	161.10	7	37.244	
2932.39980	84.90	4	35.336	
2936.31960	84.80	3	23.585	
2941.83530	87.80	5	45.558	
2949.81690	82.30	5	48.603	
2955.48280	47.10	2	21.231	
2962.67130	73.40	2	13.624	
2968.13850	82.40	4	36.408	
2972.32300	34.70	2	28.818	
2977.60310	79.90	6	62.578	
2984.66250	88.60	3	22.573	
2993.81570	73.70	5	54.274	
2999.61780	77.80	4	38.560	
3002.53400	37.40	2	26.738	
3005.66020	81.30	5	49.200	
3009.95330	72.20	5	55.402	
3014.78130	80.10	6	62.422	
3024.96630	69.10	5	57.887	
3031.64220	90.50	4	33.149	
3037.62940	74.60	5	53.619	
3044.08070	58.00	2	17.241	
3048.65270	52.30	3	38.241	
3052.37640	78.00	5	51.282	
3058.51070	56.40	4	53.191	
3065.30440	86.50	4	34.682	
3068.89160	57.20	4	52.448	
3072.25650	75.10	3	26.631	
3079.35430	168.70	6	29.638	
3083.22940	69.60	5	57.471	
3089.53600	39.60	2	25.253	
3093.33620	34.50	2	28.986	
3102.05320	74.30	4	40.377	
3106.50450	49.40	3	40.486	
3112.95820	33.70	2	29.674	
3118.35060	45.30	3	44.150	
3123.37150	68.10	5	58.737	
3131.87010	46.30	2	21.598	
3137.18530	70.80	4	42.373	
3144.91370	94.80	4	31.646	
3149.43270	58.10	4	51.635	
3156.40400	52.10	3	38.388	
3161.02970	38.60	2	25.907	
3164.77540	83.50	4	35.928	
3172.72660	80.10	4	37.453	
3177.58900	36.40	2	27.473	
3183.00500	68.20	5	58.651	
3186.03470	83.30	4	36.014	
3192.85170	74.10	4	40.486	
3199.27640	93.50	8	74.866	
3207.60060	83.50	5	47.904	
3214.50000	32.90	2	30.395	
3221.41090	80.00	5	50.000	
3227.63520	61.20	3	32.680	
3234.03640	79.70	5	50.188	
3239.35760	47.20	2	21.186	
3244.56520	63.40	3	31.546	
3252.83220	84.50	3	23.669	
3258.02420	34.90	2	28.653	
3263.66010	77.20	6	64.767	
3268.40440	59.30	3	33.727	
3273.59800	34.40	2	29.070	
3277.31970	54.20	3	36.900	
3282.23460	89.00	3	22.472	
3287.13500	64.30	3	31.104	
3292.13520	85.70	3	23.337	
3297.57170	66.10	4	45.386	
3304.56040	61.80	3	32.362	
3314.34390	41.40	3	48.309	
3318.92370	77.50	5	51.613	
3326.73120	229.20	6	21.815	
3330.62240	79.10	4	37.927	
3335.98440	81.90	5	48.840	
3340.61280	62.30	4	48.154	
3343.62910	78.10	5	51.216	
3352.25390	36.00	3	55.556	
3357.74730	77.20	3	25.907	
3363.95080	88.20	4	34.014	
3371.42990	75.60	4	39.683	
3376.70640	97.20	3	20.576	
3379.95330	71.40	3	28.011	
3384.33250	93.30	4	32.154	
3389.57920	85.30	3	23.447	
3396.94570	89.60	8	78.125	
3404.36740	66.10	5	60.514	
3413.49630	96.60	6	51.760	
3419.49440	174.20	4	17.222	
3424.19750	33.60	2	29.762	
3431.21090	100.60	4	29.821	
3437.62300	90.40	5	44.248	
3444.78010	95.50	4	31.414	
3451.75760	81.10	4	36.991	
3459.24850	90.70	3	22.051	
3462.45290	35.00	2	28.571	
3467.88020	64.10	4	46.802	
3471.16860	64.30	4	46.656	
3478.48260	53.70	3	37.244	
3486.08590	34.30	2	29.155	
3492.29810	97.10	3	20.597	
3499.68260	76.60	4	39.164	
3506.50770	76.70	3	26.076	
3510.46300	54.30	3	36.832	
3516.92230	71.60	3	27.933	
3525.28760	101.00	3	19.802	
3529.34940	47.90	2	20.877	
3535.10380	75.90	3	26.350	
3540.91840	91.30	5	43.812	
3546.17840	34.90	2	28.653	
3550.57240	416.20	9	19.222	
3556.21400	92.20	3	21.692	
3564.38730	49.20	2	20.325	
3568.55310	62.30	4	48.154	
3572.83740	74.80	4	40.107	
3580.21060	97.60	4	30.738	
3587.29650	89.90	6	55.617	
3592.75530	57.20	4	52.448	
3599.03550	83.80	4	35.800	
3607.36650	58.10	3	34.423	
3612.37570	91.80	3	21.786	
3617.77280	73.20	4	40.984	
3622.43680	80.90	6	61.805	
3637.57520	104.70	4	28.653	

t	58	58	58	
	Duration	Count	Frequency	
[s]	[ms]	[-]	[Hz]	
85.20940	463.60	4	6.471	
119.53210	44.10	2	22.676	
129.56750	53.40	2	18.727	
154.44450	58.30	2	17.153	
227.31980	76.70	3	26.076	
248.25210	44.90	2	22.272	
403.48370	45.00	2	22.222	
469.66180	250.40	2	3.994	
502.12220	357.00	4	8.403	
616.30960	250.60	2	3.990	
664.41480	52.00	2	19.231	
713.14520	427.00	8	16.393	
933.70060	285.30	2	3.505	
954.97960	320.60	3	6.238	
1011.61160	50.00	3	40.000	
1016.58050	216.10	2	4.627	
1034.63450	274.90	4	10.913	
1054.81740	47.30	2	21.142	
1105.72450	454.10	3	4.404	
1146.69460	60.10	2	16.639	
1156.44140	330.60	2	3.025	
1204.34710	308.40	2	3.243	
1240.39940	40.70	2	24.570	
1250.70320	61.30	2	16.313	
1281.50230	764.70	4	3.923	
1313.64380	47.90	3	41.754	
1319.79940	75.10	2	13.316	
1441.09620	42.40	2	23.585	
1483.38820	59.50	2	16.807	
1605.89510	410.50	5	9.744	
1625.72110	381.80	2	2.619	
1645.67310	78.40	4	38.265	
1730.01140	77.00	2	12.987	
1781.55480	330.80	3	6.046	
1875.28120	295.00	2	3.390	
1881.73060	34.60	2	28.902	
1897.93100	393.30	4	7.628	
1932.57290	87.90	2	11.377	
2013.37250	37.70	2	26.525	
2155.58630	39.70	2	25.189	
2177.32030	40.60	2	24.631	
2229.16890	314.80	2	3.177	
2235.51510	38.90	2	25.707	
2260.79090	390.80	3	5.118	
2332.88470	74.20	2	13.477	
2427.79820	426.90	4	7.027	
2451.59420	51.40	2	19.455	
2477.10760	290.20	5	13.784	
2506.53380	275.10	2	3.635	
2524.30310	39.90	2	25.063	
2547.98510	39.90	2	25.063	
2565.94000	38.60	2	25.907	
2575.00310	371.60	3	5.382	
2606.75470	323.70	3	6.179	
2659.27160	368.80	3	5.423	
2692.87820	311.50	2	3.210	
2699.37440	32.60	2	30.675	
2722.21080	72.60	2	13.774	
2831.03490	73.10	2	13.680	
2837.51910	401.50	4	7.472	
2875.42080	350.70	9	22.812	
2899.76280	41.10	2	24.331	
2914.66440	38.80	2	25.773	
2932.40530	43.30	2	23.095	
2941.84060	43.10	3	46.404	
2949.82230	346.70	3	5.769	
2993.82260	36.80	2	27.174	
3048.65930	64.20	2	15.576	
3058.51570	54.90	2	18.215	
3065.31740	282.40	3	7.082	
3068.89970	37.80	2	26.455	
3102.05850	350.70	5	11.406	
3123.37730	74.20	2	13.477	
3149.43780	297.30	5	13.454	
3234.04210	391.50	7	15.326	
3239.36290	270.10	3	7.405	
3304.56730	40.30	2	24.814	
3343.63720	41.20	2	24.272	
3396.95290	43.80	2	22.831	
3451.76390	41.80	2	23.923	
3550.58300	417.90	3	4.786	
3568.56120	391.60	5	10.215	
3622.44320	36.80	2	27.174	

t	61	61	61	
	Duration	Count	Frequency	
[s]	[ms]	[-]	[Hz]	

t	62	62	62	
	Duration	Count	Frequency	
[s]	[ms]	[-]	[Hz]	
701.20500	27.20	4	110.294	
846.00130	15.20	3	131.579	
1281.86920	391.70	2	2.553	
2595.28370	12.20	2	81.967	

t	63	63	63	
	Duration	Count	Frequency	
[s]	[ms]	[-]	[Hz]	
570.20210	13.20	2	75.758	
750.88410	15.10	2	66.225	
820.38890	14.20	2	70.423	
965.30630	14.20	2	70.423	
1281.87020	697.80	5	5.732	
1306.30690	15.20	2	65.789	
1605.89240	12.20	2	81.967	
1909.09940	12.00	2	83.333	
2100.75050	13.40	2	74.627	
2304.13880	12.50	2	80.000	
2344.40820	12.00	2	83.333	
2366.63750	11.70	2	85.470	
2387.13840	12.60	2	79.365	
2779.75860	12.00	2	83.333	
2875.41890	10.80	2	92.593	
2968.14240	11.70	3	170.940	
2972.32770	11.40	2	87.719	
3214.50430	10.40	2	96.154	
3282.24030	10.60	2	94.340	
3384.33890	10.30	2	97.087	
3389.58480	10.20	2	98.039	
3568.55880	11.60	2	86.207	

t	64	64	64	
	Duration	Count	Frequency	
[s]	[ms]	[-]	[Hz]	
30.73030	10.10	2	99.010	
49.58810	10.00	2	100.000	
1281.87240	694.70	5	5.758	
1864.88340	310.10	2	3.225	
2747.61700	11.70	2	85.470	

t	65	65	65	
	Duration	Count	Frequency	
[s]	[ms]	[-]	[Hz]	
30.73400	207.20	4	14.479	
85.22200	42.60	2	23.474	
248.25350	10.20	3	196.078	
282.75650	157.00	6	31.847	
315.38340	159.10	3	12.571	
362.31500	177.50	6	28.169	
369.91000	157.50	4	19.048	
403.48550	52.00	3	38.462	
419.17390	123.00	4	24.390	
438.41030	204.10	4	14.699	
449.88660	133.00	4	22.556	
463.44140	10.50	2	95.238	
469.67030	199.50	5	20.050	
515.38270	53.00	3	37.736	
526.65360	10.80	2	92.593	
550.14200	180.80	5	22.124	
560.58200	47.00	3	42.553	
623.51790	130.70	4	22.953	
664.41580	10.80	2	92.593	
701.22090	123.70	6	40.420	
759.81270	10.90	2	91.743	
820.40400	24.90	2	40.161	
927.74700	10.90	2	91.743	
995.36440	10.90	2	91.743	
1016.59040	218.40	2	4.579	
1028.44420	170.70	7	35.149	
1034.63850	197.50	6	25.316	
1067.11710	10.70	2	93.458	
1076.78020	10.60	2	94.340	
1197.88430	145.20	3	13.774	
1220.73920	27.10	2	36.900	
1240.40140	11.70	2	85.470	
1250.70570	10.20	2	98.039	
1257.95540	137.40	4	21.834	
1281.51420	732.80	6	6.823	
1336.93480	10.90	2	91.743	
1405.61270	11.60	2	86.207	
1411.51230	10.50	2	95.238	
1433.89790	11.50	2	86.957	
1472.82670	11.20	2	89.286	
1555.06420	167.00	3	11.976	
1593.89800	159.50	3	12.539	
1632.24230	130.40	2	7.669	
1675.23950	10.10	2	99.010	
1683.23790	10.10	2	99.010	
1714.49410	154.60	4	19.405	
1739.61300	143.60	4	20.891	
1815.81250	154.40	3	12.953	
1846.79690	10.40	2	96.154	
1970.57800	101.30	5	39.487	
2083.37550	32.40	2	30.864	
2687.95910	106.80	2	9.363	
3106.52730	143.10	5	27.952	
3118.37090	145.50	5	27.491	
3227.65660	178.80	3	11.186	
3273.62040	117.60	3	17.007	
3478.49980	108.30	2	9.234	
3499.68970	176.60	6	28.313	

t	66	66	66	
	Duration	Count	Frequency	
[s]	[ms]	[-]	[Hz]	
30.72960	64.20	3	31.153	
49.58660	96.60	3	20.704	
63.49310	54.70	3	36.563	
85.20650	59.60	4	50.336	
100.79520	109.20	3	18.315	
119.52890	62.60	2	15.974	
129.56540	102.20	3	19.569	
154.44240	97.20	5	41.152	
157.62790	42.60	2	23.474	
162.69300	47.20	2	21.186	
184.55230	97.20	3	20.576	
211.78310	69.80	5	57.307	
227.31820	73.10	4	41.040	
248.24910	113.00	5	35.398	
261.35820	93.00	5	43.011	
282.75110	114.10	3	17.528	
291.18990	64.00	3	31.250	
315.37830	104.50	3	19.139	
339.31980	56.70	2	17.637	
347.99700	59.20	4	50.676	
362.30860	57.30	2	17.452	
369.90500	46.10	2	21.692	
376.90550	65.60	2	15.244	
388.19500	65.50	3	30.534	
403.48040	58.10	3	34.423	
419.15790	46.30	3	43.197	
428.17440	47.60	3	42.017	
438.40540	59.60	3	33.557	
449.88080	50.70	2	19.724	
463.43540	56.90	3	35.149	
469.66500	73.30	3	27.285	
478.87540	102.80	5	38.911	
485.23780	60.60	3	33.003	
492.01990	41.80	2	23.923	
502.11800	64.80	5	61.728	
515.37800	92.80	5	43.103	
526.64850	58.30	3	34.305	
538.44420	50.50	2	19.802	
550.13690	109.60	3	18.248	
560.57640	54.20	3	36.900	
570.20120	45.60	2	21.930	
578.80100	60.50	3	33.058	
586.63060	101.90	3	19.627	
599.31900	57.10	3	35.026	
607.16280	88.40	4	33.937	
616.30870	88.00	3	22.727	
623.51250	44.10	2	22.676	
630.30000	41.90	3	47.733	
637.01550	63.60	5	62.893	
646.40610	91.90	3	21.763	
652.04130	47.20	2	21.186	
664.41040	52.00	2	19.231	
685.23170	106.70	4	28.116	
701.20180	38.80	2	25.773	
713.13980	54.90	2	18.215	
732.51080	109.40	4	27.422	
744.81010	104.60	3	19.120	
750.88410	41.60	3	48.077	
759.80850	49.90	3	40.080	
766.38970	44.70	2	22.371	
773.51230	48.50	2	20.619	
797.92000	60.70	2	16.474	
807.89510	36.10	2	27.701	
813.71650	44.20	2	22.624	
820.38670	43.50	2	22.989	
827.60960	67.50	4	44.444	
837.40110	112.80	3	17.730	
845.99880	43.90	3	45.558	
852.97370	49.10	2	20.367	
858.75320	43.90	3	45.558	
866.95340	85.60	5	46.729	
875.84010	72.80	4	41.209	
880.48560	94.30	3	21.209	
885.63200	52.20	3	38.314	
904.67010	77.70	4	38.610	
910.51310	51.80	2	19.305	
921.71620	83.40	5	47.962	
927.74140	49.30	2	20.284	
933.69670	64.80	3	30.864	
945.96260	64.60	4	46.440	
954.97570	85.40	4	35.129	
965.30540	49.10	3	40.733	
972.59770	78.90	4	38.023	
983.31790	69.90	3	28.612	
995.35870	50.20	2	19.920	
999.57160	101.70	4	29.499	
1011.60800	88.10	6	56.754	
1028.43840	59.90	4	50.083	
1034.63210	54.20	2	18.450	
1046.12320	45.80	3	43.668	
1054.81330	60.00	3	33.333	
1060.35750	39.00	2	25.641	
1076.77460	110.50	4	27.149	
1091.59650	47.50	2	21.053	
1105.71650	45.10	4	66.519	
1112.76590	70.10	3	28.531	
1118.88930	50.10	2	19.960	
1131.20810	56.10	3	35.651	
1164.04140	71.50	2	13.986	
1185.40180	68.10	3	29.369	
1197.87890	59.30	2	16.863	
1210.15830	57.80	2	17.301	
1220.72250	55.40	3	36.101	
1228.64110	51.10	3	39.139	
1240.39660	90.30	5	44.297	
1250.69960	31.50	2	31.746	
1257.94830	56.60	2	17.668	
1268.09140	57.30	4	52.356	
1281.49970	758.90	10	11.859	
1293.14530	81.30	6	61.501	
1306.30520	99.30	4	30.211	
1313.64030	62.80	2	15.924	
1325.09270	66.40	3	30.120	
1336.92960	59.30	2	16.863	
1342.26220	42.20	3	47.393	
1350.91330	90.50	3	22.099	
1359.70430	77.60	3	25.773	
1368.84700	71.90	4	41.725	
1375.43730	42.00	2	23.810	
1381.03870	43.70	2	22.883	
1389.90620	30.00	2	33.333	
1399.90880	53.50	3	37.383	
1405.60590	43.20	2	23.148	
1420.96180	60.60	3	33.003	
1433.89110	74.70	4	40.161	
1441.09350	43.70	2	22.883	
1450.15760	41.50	3	48.193	
1458.04140	72.10	3	27.739	
1472.82130	50.40	3	39.683	
1483.38370	64.80	2	15.432	
1493.89940	35.40	2	28.249	
1503.31660	61.90	3	32.310	
1523.10770	46.80	2	21.368	
1542.99850	47.80	2	20.921	
1547.39910	65.90	3	30.349	
1555.05840	52.40	2	19.084	
1566.70730	70.80	4	42.373	
1578.83750	101.20	4	29.644	
1593.88160	105.80	4	28.355	
1605.89080	51.00	3	39.216	
1614.64050	65.40	3	30.581	
1625.71760	76.70	3	26.076	
1632.22590	50.70	3	39.448	
1639.43850	57.80	3	34.602	
1645.66970	53.20	2	18.797	
1652.29980	53.80	2	18.587	
1675.23450	105.60	3	18.939	
1683.23210	75.70	2	13.210	
1690.54970	48.30	2	20.704	
1705.86790	84.30	5	47.450	
1714.48750	98.50	5	40.609	
1739.60740	59.20	3	33.784	
1745.88050	60.10	4	49.917	
1759.13140	54.00	3	37.037	
1771.34550	52.30	3	38.241	
1792.67560	97.50	4	30.769	
1801.48790	81.10	4	36.991	
1807.14370	88.60	3	22.573	
1815.79800	105.60	5	37.879	
1823.51380	44.60	2	22.422	
1838.57650	51.00	2	19.608	
1856.97590	80.30	4	37.360	
1864.88020	58.80	2	17.007	
1871.35340	50.60	4	59.289	
1881.72770	100.80	3	19.841	
1892.53540	43.10	3	46.404	
1897.92810	29.80	2	33.557	
1909.09600	48.00	3	41.667	
1923.27840	50.00	4	60.000	
1936.70760	54.10	2	18.484	
1955.05030	49.90	3	40.080	
1965.03040	51.80	2	19.305	
1970.56170	43.30	2	23.095	
1981.16910	50.70	2	19.724	
1987.14430	39.20	2	25.510	
1993.59840	56.70	2	17.637	
2000.07040	78.70	6	63.532	
2006.25140	43.70	3	45.767	
2013.36940	79.30	4	37.831	
2022.74710	48.40	2	20.661	
2028.72140	54.90	3	36.430	
2043.47110	43.60	2	22.936	
2059.39870	80.50	4	37.267	
2070.00200	38.90	2	25.707	
2083.35970	51.80	3	38.610	
2089.42120	52.20	3	38.314	
2100.74840	88.70	3	22.548	
2106.39400	84.50	3	23.669	
2117.93160	57.30	2	17.452	
2131.32040	104.80	4	28.626	
2137.96720	78.50	5	50.955	
2142.80130	81.00	4	37.037	
2149.98210	42.00	2	23.810	
2155.58370	50.00	3	40.000	
2160.69630	44.50	2	22.472	
2167.36790	89.80	5	44.543	
2171.90570	61.60	2	16.234	
2177.31720	84.40	5	47.393	
2182.90600	78.90	3	25.349	
2190.51750	60.90	2	16.420	
2204.87180	48.80	2	20.492	
2214.87620	36.20	2	27.624	
2222.91310	79.00	4	37.975	
2235.51230	49.30	3	40.568	
2243.59850	41.90	3	47.733	
2260.78740	55.60	4	53.957	
2265.28380	52.10	4	57.582	
2272.55170	41.70	2	23.981	
2279.25170	64.30	4	46.656	
2295.02560	64.20	4	46.729	
2299.27200	78.60	4	38.168	
2304.13570	39.90	2	25.063	
2313.42370	63.60	2	15.723	
2320.03180	68.00	3	29.412	
2326.00470	37.40	2	26.738	
2344.40600	39.00	2	25.641	
2349.60910	39.30	2	25.445	
2352.48020	41.40	2	24.155	
2362.18830	78.90	4	38.023	
2366.63460	41.30	3	48.426	
2374.62920	50.20	2	19.920	
2380.03530	57.30	2	17.452	
2387.13640	74.80	4	40.107	
2394.67770	77.70	4	38.610	
2408.82230	93.30	6	53.591	
2412.69740	61.90	4	48.465	
2421.53170	74.30	4	40.377	
2431.91440	39.70	2	25.189	
2438.59150	42.00	2	23.810	
2456.18740	58.90	4	50.934	
2470.75840	89.70	4	33.445	
2495.97000	28.50	2	35.088	
2500.43160	63.30	3	31.596	
2511.03410	41.40	3	48.309	
2524.30080	62.20	3	32.154	
2528.98630	67.70	3	29.542	
2535.00210	51.50	2	19.417	
2547.98140	67.20	5	59.524	
2552.57500	77.10	6	64.851	
2561.05870	51.70	2	19.342	
2565.93690	62.70	2	15.949	
2590.11840	64.60	3	30.960	
2595.28090	44.80	2	22.321	
2613.54210	49.40	2	20.243	
2632.59520	38.40	3	52.083	
2638.22880	47.30	2	21.142	
2653.26840	55.10	2	18.149	
2659.26970	29.20	2	34.247	
2665.30500	64.60	4	46.440	
2670.81960	103.10	3	19.399	
2677.10220	56.80	2	17.606	
2681.25270	78.10	3	25.608	
2687.94030	36.00	2	27.778	
2699.37060	54.60	3	36.630	
2711.95920	43.10	2	23.202	
2736.62210	100.60	3	19.881	
2742.80090	101.60	7	59.055	
2767.69930	83.70	2	11.947	
2779.75700	78.40	3	25.510	
2786.32080	40.40	2	24.752	
2791.46600	73.80	2	13.550	
2804.68670	81.00	5	49.383	
2817.01150	29.80	2	33.557	
2837.51520	55.70	4	53.860	
2853.06800	26.90	2	37.175	
2870.63320	48.70	3	41.068	
2885.27560	41.40	3	48.309	
2889.27870	27.50	2	36.364	
2896.13960	60.30	4	49.751	
2899.76130	73.00	3	27.397	
2905.01990	39.00	2	25.641	
2909.87250	44.00	3	45.455	
2914.66120	50.70	2	19.724	
2919.89780	76.10	3	26.281	
2932.40320	67.50	3	29.630	
2936.32320	84.30	4	35.587	
2968.14050	56.60	2	17.668	
2972.32580	43.40	2	23.041	
2984.66370	51.50	3	38.835	
2999.62090	90.80	4	33.040	
3002.54010	55.70	4	53.860	
3065.31460	37.20	2	26.882	
3079.35540	59.20	3	33.784	
3089.54070	55.60	2	17.986	
3093.33900	93.20	3	21.459	
3112.95970	52.80	2	18.939	
3118.35440	57.50	2	17.391	
3144.91820	71.30	3	28.050	
3156.40550	53.70	2	18.622	
3161.03510	66.20	3	30.211	
3177.59410	88.60	5	45.147	
3186.04110	62.80	3	31.847	
3207.60380	25.90	2	38.610	
3214.50170	53.40	3	37.453	
3227.64110	119.40	6	41.876	
3252.83370	49.60	4	60.484	
3258.02640	45.40	2	22.026	
3268.40850	58.10	2	17.212	
3273.60140	48.30	2	20.704	
3282.23680	63.90	4	46.948	
3326.73290	89.90	3	22.247	
3352.25540	50.90	3	39.293	
3376.71070	55.60	3	35.971	
3384.33620	62.10	3	32.206	
3389.58300	43.00	2	23.256	
3419.49780	62.60	4	47.923	
3424.20030	89.00	4	33.708	
3431.21310	52.20	2	19.157	
3444.78160	66.50	3	30.075	
3459.25040	64.10	3	31.201	
3462.45770	42.30	2	23.641	
3478.48520	54.80	2	18.248	
3486.08740	107.30	3	18.639	
3492.30140	51.70	2	19.342	
3499.68460	107.40	3	18.622	
3506.50870	63.80	2	15.674	
3516.92610	58.70	3	34.072	
3525.29170	77.70	4	38.610	
3546.18110	64.90	2	15.408	
3556.21670	74.10	3	26.991	
3564.39430	31.20	2	32.051	
3580.21190	74.50	3	26.846	
3612.38010	72.80	2	13.736	

t	67	67	67	
	Duration	Count	Frequency	
[s]	[ms]	[-]	[Hz]	
428.17140	25.80	2	38.760	
701.20040	89.10	4	33.670	
904.66770	24.70	2	40.486	
999.55630	28.90	3	69.204	
1745.87810	25.60	2	39.063	
1970.48550	100.00	3	20.000	
2022.74590	22.50	2	44.444	
2349.60690	23.70	2	42.194	
2352.47850	22.60	2	44.248	
2638.22620	25.10	2	39.841	
2665.30420	20.90	2	47.847	
2977.60400	24.00	2	41.667	
3149.43310	22.70	2	44.053	
3172.72080	18.50	4	162.162	

t	68	68	68	
	Duration	Count	Frequency	
[s]	[ms]	[-]	[Hz]	
388.20670	11.60	3	172.414	
1282.08850	172.60	3	11.587	
3172.75320	17.30	2	57.803	

t	71	71	71	
	Duration	Count	Frequency	
[s]	[ms]	[-]	[Hz]	

t	72	72	72	
	Duration	Count	Frequency	
[s]	[ms]	[-]	[Hz]	
863.27080	144.80	5	27.624	
1966.44770	19.40	3	103.093	
2404.43900	381.00	2	2.625	
3093.92970	27.10	3	73.801	
3389.91000	38.40	4	78.125	

t	73	73	73	
	Duration	Count	Frequency	
[s]	[ms]	[-]	[Hz]	
419.18580	26.20	2	38.168	
570.22880	16.60	3	120.482	
820.41530	20.90	3	95.694	
837.43220	11.40	2	87.719	
1105.74410	23.00	2	43.478	
1281.87430	675.20	9	11.848	
1375.46500	17.70	2	56.497	
1578.86710	21.80	4	137.615	
1987.17480	20.70	3	96.618	
2243.62710	12.40	3	161.290	
2595.30640	11.10	2	90.090	
2632.62240	15.50	3	129.032	
2687.96610	23.70	3	84.388	
2786.34740	28.50	2	35.088	
3352.28580	11.30	2	88.496	

t	74	74	74	
	Duration	Count	Frequency	
[s]	[ms]	[-]	[Hz]	
701.25360	15.70	2	63.694	
1281.87380	393.30	3	5.085	

t	75	75	75	
	Duration	Count	Frequency	
[s]	[ms]	[-]	[Hz]	
100.79930	67.50	2	14.815	
369.90830	96.10	3	20.812	
388.19830	15.70	2	63.694	
419.16140	50.60	2	19.763	
449.88480	98.80	5	40.486	
492.02300	76.30	4	39.318	
623.51640	60.40	2	16.556	
750.88830	78.50	6	63.694	
759.81210	74.70	2	13.387	
766.39440	66.50	2	15.038	
781.90120	17.30	3	115.607	
807.89790	14.40	2	69.444	
820.39130	57.40	2	17.422	
837.40630	69.30	2	14.430	
846.05030	14.80	3	135.135	
858.75720	58.90	3	33.956	
972.60370	10.00	2	100.000	
1281.50270	760.70	4	3.944	
1319.80050	16.10	3	124.224	
1598.12320	15.00	3	133.333	
1683.23600	14.80	3	135.135	
1714.49220	13.70	2	72.993	
1781.55500	15.20	3	131.579	
1856.97880	13.80	3	144.928	
1875.28400	15.50	3	129.032	
1970.56560	74.70	5	53.548	
1987.14790	70.20	2	14.245	
2167.37180	14.90	3	134.228	
2197.05640	15.40	3	129.870	
2229.17120	15.30	3	130.719	
2243.60250	75.20	3	26.596	
2250.14000	15.20	2	65.789	
2326.05890	28.00	4	107.143	
2332.88700	14.10	3	141.844	
2543.95530	13.80	3	144.928	
2575.00440	13.70	3	145.985	
2606.75690	13.60	3	147.059	
2619.53840	13.90	3	143.885	
2646.09550	13.70	3	145.985	
2722.21270	12.00	3	166.667	
2797.02970	15.00	3	133.333	
2812.71390	13.70	3	145.985	
2827.32060	12.10	3	165.289	
2949.82320	14.20	3	140.845	
2955.48790	15.00	3	133.333	
2962.67800	12.50	3	160.000	
3009.96140	15.90	3	125.786	
3044.08720	11.80	3	169.492	
3106.51600	10.30	2	97.087	
3131.87580	13.50	3	148.148	
3172.75090	21.90	2	45.662	
3199.28840	14.30	3	139.860	
3221.41690	12.90	3	155.039	
3263.66870	11.90	3	168.067	
3335.99610	13.50	3	148.148	
3357.75890	22.50	2	44.444	
3371.43570	12.10	3	165.289	
3379.97080	18.70	2	53.476	
3467.88850	12.90	3	155.039	
3529.35730	13.60	2	73.529	
3535.11010	12.00	2	83.333	
3550.58620	10.20	2	98.039	
3587.30070	12.10	3	165.289	

t	76	76	76	
	Duration	Count	Frequency	
[s]	[ms]	[-]	[Hz]	
30.73090	100.60	3	19.881	
49.58800	83.00	5	48.193	
63.49490	82.70	3	24.184	
85.20750	85.50	4	35.088	
100.79720	28.10	3	71.174	
119.53000	67.40	5	59.347	
129.56600	68.90	4	43.541	
157.62980	52.30	3	38.241	
162.69540	68.70	6	72.780	
184.55350	65.00	3	30.769	
248.24970	78.30	4	38.314	
282.75270	73.70	5	54.274	
315.37850	45.60	3	43.860	
339.32100	39.40	2	25.381	
347.99730	72.40	2	13.812	
362.31020	80.10	6	62.422	
369.90620	33.10	2	30.211	
403.48180	57.50	3	34.783	
419.15900	104.70	3	19.102	
428.17580	75.70	5	52.840	
438.40590	91.60	5	43.668	
449.88210	100.50	3	19.900	
463.43780	76.40	7	78.534	
478.87700	32.30	2	30.960	
492.02130	39.10	3	51.151	
538.44510	57.00	4	52.632	
550.13770	89.60	6	55.804	
560.57750	78.90	5	50.697	
570.20240	78.40	4	38.265	
586.63150	66.30	3	30.166	
599.31980	73.70	6	67.843	
607.16400	50.80	2	19.685	
623.51320	102.70	3	19.474	
630.30190	60.90	3	32.841	
646.40780	46.30	4	64.795	
685.23310	36.80	2	27.174	
701.20350	25.10	2	39.841	
713.14300	56.20	2	17.794	
732.51170	60.80	4	49.342	
744.81150	70.30	6	71.124	
750.88640	85.60	3	23.364	
759.80930	40.70	3	49.140	
766.39270	90.30	4	33.223	
773.51360	60.60	5	66.007	
813.71740	75.10	5	53.262	
820.38930	32.70	2	30.581	
837.40400	84.40	3	23.697	
846.00020	29.90	2	33.445	
852.97570	71.40	6	70.028	
858.75470	86.30	3	23.175	
880.48780	34.70	2	28.818	
965.30640	57.70	5	69.324	
995.36000	67.50	3	29.630	
1046.12640	65.30	3	30.628	
1060.35910	34.40	2	29.070	
1105.71940	30.30	2	33.003	
1197.88050	88.60	5	45.147	
1281.50010	766.90	7	7.824	
1306.30820	61.50	5	65.041	
1342.26350	75.00	3	26.667	
1350.91440	45.10	3	44.346	
1375.43820	66.90	4	44.843	
1381.03970	66.30	4	45.249	
1405.60770	77.10	3	25.940	
1450.15890	39.70	3	50.378	
1472.82160	80.60	3	24.814	
1523.10870	57.50	4	52.174	
1578.83940	76.70	3	26.076	
1632.22720	70.90	2	14.104	
1639.44060	10.50	2	95.238	
1892.53650	29.10	2	34.364	
1909.09670	70.70	4	42.433	
1923.27950	39.90	2	25.063	
1970.56240	48.40	3	41.322	
1987.14530	67.90	5	58.910	
2043.47240	82.20	5	48.662	
2070.00300	62.80	3	31.847	
2171.90750	11.00	2	90.909	
2243.59970	85.30	3	23.447	
2304.13690	69.80	5	57.307	
2326.00810	31.50	3	63.492	
2344.40760	75.50	4	39.735	
2349.60990	65.40	4	45.872	
2431.91600	53.20	3	37.594	
2495.97100	11.60	2	86.207	
2595.28390	50.20	2	19.920	
2632.59760	68.50	5	58.394	
2687.94190	59.80	4	50.167	
2786.32420	60.60	5	66.007	
3227.64190	13.30	2	75.188	
3252.83560	51.90	2	19.268	

t	77	77	77	
	Duration	Count	Frequency	
[s]	[ms]	[-]	[Hz]	
388.20150	10.50	2	95.238	
807.90060	18.30	4	163.934	
999.59730	21.50	2	46.512	
1282.07130	194.70	5	20.544	
3065.32270	20.80	2	48.077	
3172.75200	18.50	2	54.054	
3357.76040	18.20	2	54.945	

t	78	78	78	
	Duration	Count	Frequency	
[s]	[ms]	[-]	[Hz]	

t	82	82	82	
	Duration	Count	Frequency	
[s]	[ms]	[-]	[Hz]	

t	83	83	83	
	Duration	Count	Frequency	
[s]	[ms]	[-]	[Hz]	
798.26070	11.20	2	89.286	
863.06730	19.00	5	210.526	
2827.80390	12.00	2	83.333	

t	84	84	84	
	Duration	Count	Frequency	
[s]	[ms]	[-]	[Hz]	
469.66940	13.70	2	72.993	
616.31440	12.50	2	80.000	
1016.58900	13.40	2	74.627	
1204.35220	12.20	2	81.967	
1281.50540	757.40	8	9.242	
1875.28530	11.50	2	86.957	
2190.52280	11.80	2	84.746	
2250.14120	18.90	2	52.910	
2256.17060	12.50	2	80.000	
2332.88780	18.40	2	54.348	
2543.95660	19.10	2	52.356	
2575.00580	11.30	2	88.496	
2606.75760	11.00	2	90.909	
2619.53930	11.50	2	86.957	
2625.79250	17.50	2	57.143	
2659.27520	11.80	2	84.746	
2692.88100	13.50	2	74.074	
2722.21390	10.60	2	94.340	
2791.47240	10.90	2	91.743	
2797.03000	12.60	2	79.365	
2817.01700	10.80	2	92.593	
2827.32290	16.40	2	60.976	
2847.66360	19.00	2	52.632	
2949.82480	11.00	2	90.909	
2955.48970	21.70	2	46.083	
3009.96300	19.30	2	51.813	
3031.65030	20.20	2	49.505	
3044.08850	17.50	2	57.143	
3221.41850	10.10	2	99.010	
3239.36630	18.00	2	55.556	
3287.14430	12.20	2	81.967	
3318.93260	12.10	2	82.645	
3363.96260	10.90	2	91.743	
3371.43770	10.60	2	94.340	
3413.50230	19.50	2	51.282	
3467.89010	11.80	2	84.746	
3529.35910	10.70	3	186.916	
3540.92470	12.10	2	82.645	
3550.58680	12.40	2	80.645	
3564.39710	17.90	2	55.866	
3587.30260	11.00	2	90.909	
3599.04500	19.50	2	51.282	

t	85	85	85	
	Duration	Count	Frequency	
[s]	[ms]	[-]	[Hz]	
154.45060	15.00	3	133.333	
211.79040	11.30	2	88.496	
227.32680	15.60	3	128.205	
348.00220	11.70	3	170.940	
362.31510	18.20	4	164.835	
376.91060	23.70	3	84.388	
388.19940	35.60	2	28.090	
438.41220	15.20	3	131.579	
485.24260	18.70	3	106.952	
515.38560	13.90	3	143.885	
781.90290	27.00	4	111.111	
807.89830	10.90	3	183.486	
898.27710	26.60	4	112.782	
972.60620	11.10	2	90.090	
999.59650	33.20	2	30.120	
1028.44600	15.20	3	131.579	
1085.59080	14.30	3	139.860	
1197.88480	11.10	3	180.180	
1257.95530	16.50	3	121.212	
1282.05180	210.40	6	23.764	
1319.80440	23.20	4	129.310	
1325.09710	14.60	3	136.986	
1389.91470	25.70	5	155.642	
1493.90310	37.30	3	53.619	
1508.18670	19.60	3	102.041	
1532.76230	14.10	3	141.844	
1598.12490	30.50	2	32.787	
1614.64750	25.50	4	117.647	
1683.24010	13.40	3	149.254	
1719.16650	15.80	4	189.873	
1730.01740	33.30	7	180.180	
1739.61510	15.90	3	125.786	
1781.55720	15.00	3	133.333	
1801.49580	15.60	4	192.308	
1846.79970	14.00	2	71.429	
1856.98030	23.00	5	173.913	
1897.93410	16.60	4	180.723	
1932.57900	28.70	6	174.216	
1943.93110	13.60	3	147.059	
2035.67210	17.30	3	115.607	
2054.21160	20.90	4	143.541	
2059.40700	14.80	3	135.135	
2065.55530	22.60	4	132.743	
2095.34210	24.90	4	120.482	
2167.37560	21.00	4	142.857	
2182.91440	15.00	3	133.333	
2190.52500	23.00	4	130.435	
2197.05980	26.30	3	76.046	
2256.16960	26.00	3	76.923	
2283.78360	15.10	3	132.450	
2362.19790	12.70	4	236.220	
2445.01270	14.80	2	67.568	
2500.43950	14.40	3	138.889	
2543.95710	32.40	2	30.864	
2575.00850	22.40	4	133.929	
2606.76110	24.30	4	123.457	
2659.27780	12.80	3	156.250	
2692.88350	20.90	4	143.541	
2722.21610	18.90	4	158.730	
2767.70570	14.70	3	136.054	
2791.47390	17.40	3	114.943	
2797.03270	14.60	2	68.493	
2812.71790	14.40	3	138.889	
2817.01920	15.00	3	133.333	
2831.04180	14.00	3	142.857	
2841.48420	14.90	3	134.228	
2880.17660	14.00	3	142.857	
2889.28620	14.50	3	137.931	
2962.68170	19.70	3	101.523	
3009.96370	25.00	4	120.000	
3014.79920	14.80	4	202.703	
3044.08970	26.50	2	37.736	
3106.51940	15.80	3	126.582	
3131.87950	22.90	5	174.672	
3183.01660	12.90	2	77.519	
3199.28990	23.70	2	42.194	
3221.42060	20.10	4	149.254	
3263.67200	13.50	3	148.148	
3287.14620	16.30	4	184.049	
3318.93580	13.80	3	144.928	
3336.00080	12.30	3	162.602	
3363.96490	14.50	3	137.931	
3413.50370	28.40	2	35.211	
3467.89240	22.60	3	88.496	
3529.36040	20.40	4	147.059	
3535.12050	11.50	4	260.870	
3540.92690	21.00	4	142.857	
3550.59140	14.40	3	138.889	
3587.30510	12.60	5	317.460	

t	86	86	86	
	Duration	Count	Frequency	
[s]	[ms]	[-]	[Hz]	
1281.91180	353.20	5	11.325	

t	87	87	87	
	Duration	Count	Frequency	
[s]	[ms]	[-]	[Hz]	



Numerical Results:

Channel	Number Of Spikes	Number Of Bursts	% Spikes in Bursts	Mean Burst Duration	Mean Spikes In Bursts	 Mean Interburst Interval
				[ms]		[ms]
12	307	60	54.1	36.97	2.77	59572.71
13	556	55	25.5	296.14	2.58	64456.46
14	831	183	65.6	288.85	2.98	19530.25
15	10	0	0.0	NaN	NaN	NaN
16	593	125	50.1	30.00	2.38	28745.53
17	471	51	29.1	43.98	2.69	59231.28
21	11	2	81.8	356.45	4.50	1493715.40
22	245	17	18.4	58.91	2.65	176213.88
23	550	37	20.9	186.08	3.11	95863.76
24	712	101	48.3	298.94	3.41	35442.13
25	118	23	72.0	217.64	3.70	137534.25
26	769	133	47.2	131.48	2.73	26192.87
27	1016	189	62.0	58.29	3.33	18520.68
28	436	29	16.3	38.24	2.45	118858.54
31	305	50	71.8	142.95	4.38	72216.73
32	0	0	NaN	NaN	NaN	NaN
33	0	0	NaN	NaN	NaN	NaN
34	1419	285	86.8	301.86	4.32	12398.12
35	2618	468	99.8	372.85	5.59	7350.70
36	1533	468	99.8	109.19	3.27	7614.32
37	1121	245	79.6	100.18	3.64	14682.03
38	547	34	14.3	23.63	2.29	102874.77
41	1116	131	93.6	456.54	7.98	27393.20
42	5	1	60.0	82.30	3.00	NaN
43	231	33	89.2	209.02	6.24	83311.73
44	1262	424	96.4	246.72	2.87	8279.98
45	1288	467	99.8	279.67	2.75	7460.23
46	1740	468	99.8	127.08	3.71	7596.33
47	1069	275	81.5	83.22	3.17	13080.52
48	485	10	5.2	204.82	2.50	335806.93
51	5	0	0.0	NaN	NaN	NaN
52	99	15	85.9	213.81	5.67	190669.09
53	483	6	4.1	361.10	3.33	472246.18
54	784	147	58.9	311.86	3.14	24263.53
55	630	71	34.6	332.87	3.07	49208.51
56	1166	450	98.3	138.08	2.55	7894.92
57	1858	467	99.8	83.05	3.97	7657.02
58	618	83	37.2	186.05	2.77	42949.12
61	9	0	0.0	NaN	NaN	NaN
62	19	4	57.9	111.58	2.75	631214.87
63	255	22	18.8	43.41	2.18	142733.96
64	360	5	3.6	207.32	2.60	678965.45
65	698	58	27.1	103.90	3.26	60756.25
66	1126	323	86.4	65.27	3.01	11057.89
67	493	14	6.9	33.86	2.43	211084.14
68	27	3	29.6	67.17	2.67	1392181.15
71	6	0	0.0	NaN	NaN	NaN
72	138	5	12.3	122.14	3.40	631516.73
73	123	15	36.6	62.40	3.00	209441.09
74	46	2	10.9	204.50	2.50	580604.50
75	581	63	30.8	39.97	2.84	56193.47
76	726	91	44.6	69.18	3.56	35731.79
77	45	7	42.2	43.21	2.71	494879.10
78	7	0	0.0	NaN	NaN	NaN
82	7	0	0.0	NaN	NaN	NaN
83	38	3	23.7	14.07	3.00	1014756.50
84	340	42	26.8	31.83	2.17	76294.10
85	422	89	70.4	20.98	3.34	38988.63
86	8	1	62.5	353.20	5.00	NaN
87	5	0	0.0	NaN	NaN	NaN
